"AF3","F7","F3","FC5","T7","P7","O1","O2","FC6","F4","F8","AF4"
4113.8462,4097.4359,4106.6667,4241.0256,4109.2308,4162.5641,4119.4872,4132.3077,4136.4103,4143.5897,4109.7436,4104.6154
4141.5385,4114.359,4130.2564,4262.5641,4142.0513,4144.1026,4121.5385,4144.1026,4157.9487,4163.5897,4137.4359,4137.4359
4152.3077,4109.2308,4135.3846,4267.1795,4131.7949,4135.8974,4121.5385,4146.6667,4155.8974,4164.1026,4145.1282,4145.1282
4131.2821,4100.5128,4113.8462,4245.1282,4129.7436,4175.8974,4125.641,4140,4142.5641,4150.2564,4129.7436,4124.6154
4124.6154,4101.0256,4108.7179,4238.4615,4134.359,4177.9487,4129.2308,4146.1538,4149.7436,4153.8462,4130.2564,4124.6154
4125.641,4101.5385,4111.2821,4245.1282,4099.4872,4129.7436,4121.0256,4138.4615,4152.8205,4152.8205,4123.0769,4124.6154
4111.7949,4100,4102.5641,4237.9487,4078.4615,4109.7436,4108.2051,4115.3846,4136.9231,4136.9231,4101.5385,4106.1538
4104.1026,4093.8462,4101.0256,4233.8462,4104.1026,4132.8205,4105.1282,4112.3077,4130.7692,4133.8462,4100,4098.9744
4107.6923,4099.4872,4107.1795,4244.1026,4118.4615,4142.5641,4111.2821,4123.0769,4136.4103,4143.0769,4108.7179,4106.1538
4102.0513,4098.9744,4104.6154,4233.8462,4110.2564,4131.2821,4110.2564,4124.1026,4133.8462,4141.5385,4106.6667,4103.5897
4092.8205,4092.3077,4091.7949,4210.7692,4098.9744,4152.3077,4107.6923,4120,4122.0513,4127.6923,4095.8974,4090.2564
4094.359,4100,4087.6923,4217.4359,4090.2564,4167.1795,4107.1795,4120,4120,4124.1026,4084.6154,4087.6923
4114.359,4102.5641,4108.7179,4244.6154,4106.6667,4130.2564,4107.1795,4131.2821,4142.0513,4145.1282,4104.6154,4111.7949
4134.359,4106.6667,4122.5641,4255.3846,4133.8462,4113.3333,4113.3333,4145.1282,4162.5641,4162.5641,4142.0513,4136.9231
4132.8205,4105.641,4108.7179,4248.7179,4129.7436,4140.5128,4118.9744,4144.6154,4160,4153.3333,4150.7692,4135.8974
4125.1282,4094.8718,4104.1026,4244.6154,4113.8462,4142.5641,4121.5385,4138.9744,4164.6154,4151.2821,4150.2564,4133.3333
4122.0513,4098.9744,4112.3077,4240,4108.7179,4136.4103,4123.5897,4141.5385,4173.3333,4156.9231,4157.9487,4136.9231
4111.2821,4097.4359,4103.5897,4228.2051,4094.8718,4146.6667,4121.0256,4137.9487,4161.0256,4143.0769,4147.1795,4127.1795
4109.7436,4099.4872,4100.5128,4227.6923,4098.9744,4141.0256,4121.0256,4138.4615,4158.4615,4140.5128,4137.9487,4121.5385
4118.9744,4105.641,4110.2564,4236.9231,4106.1538,4143.0769,4124.1026,4149.2308,4171.2821,4156.9231,4149.7436,4128.7179
4107.1795,4098.4615,4095.8974,4231.2821,4083.5897,4177.9487,4115.3846,4138.4615,4158.9744,4147.1795,4142.5641,4118.9744
4091.2821,4099.4872,4085.1282,4219.4872,4083.0769,4177.4359,4110.2564,4122.0513,4147.1795,4127.6923,4123.5897,4104.1026
4115.3846,4103.5897,4113.3333,4238.4615,4113.8462,4120,4120.5128,4140.5128,4173.3333,4150.7692,4143.5897,4127.6923
4142.5641,4112.8205,4136.4103,4270.7692,4114.359,4094.8718,4127.1795,4167.1795,4192.3077,4180,4171.7949,4156.9231
4128.2051,4111.2821,4117.4359,4260,4095.8974,4147.1795,4127.6923,4156.4103,4173.8462,4160.5128,4159.4872,4140
4117.9487,4098.4615,4111.7949,4241.0256,4098.9744,4159.4872,4129.7436,4148.2051,4162.5641,4147.6923,4145.641,4126.1538
4128.7179,4106.6667,4127.1795,4252.3077,4106.6667,4116.9231,4133.8462,4161.5385,4170.2564,4164.1026,4153.8462,4140.5128
4112.3077,4100,4106.1538,4247.1795,4109.7436,4156.4103,4133.8462,4145.1282,4159.4872,4151.7949,4140.5128,4126.6667
4093.3333,4090.2564,4086.1538,4235.3846,4100,4177.4359,4121.0256,4125.1282,4150.2564,4135.8974,4127.6923,4107.6923
4100.5128,4104.6154,4100.5128,4235.8974,4085.641,4125.1282,4108.7179,4131.7949,4156.4103,4147.1795,4135.8974,4115.3846
4101.5385,4102.5641,4098.9744,4229.7436,4090.2564,4145.641,4116.4103,4130.2564,4149.7436,4146.1538,4130.2564,4113.8462
4105.1282,4100.5128,4093.8462,4235.8974,4096.9231,4167.6923,4127.6923,4129.7436,4149.7436,4143.0769,4131.7949,4115.3846
4121.5385,4105.1282,4111.2821,4254.8718,4092.3077,4108.7179,4120,4149.2308,4170.2564,4160,4152.8205,4137.9487
4123.5897,4106.1538,4116.9231,4256.9231,4096.4103,4101.5385,4117.4359,4157.9487,4173.3333,4165.641,4153.3333,4138.4615
4110.7692,4107.6923,4103.0769,4245.641,4103.0769,4150.2564,4132.3077,4148.7179,4156.4103,4152.8205,4135.8974,4120
4102.0513,4098.9744,4094.8718,4240.5128,4092.3077,4140,4132.8205,4139.4872,4143.0769,4144.1026,4127.6923,4114.359
4092.3077,4097.4359,4086.1538,4237.9487,4080,4131.2821,4110.7692,4117.9487,4127.6923,4126.1538,4113.8462,4102.5641
4099.4872,4102.5641,4087.1795,4243.5897,4085.641,4146.6667,4101.0256,4110.2564,4127.1795,4123.5897,4114.8718,4103.5897
4120,4104.6154,4101.0256,4250.7692,4101.0256,4125.1282,4111.7949,4131.2821,4149.7436,4148.7179,4136.9231,4129.7436
4111.2821,4107.1795,4094.359,4246.6667,4106.6667,4126.1538,4113.3333,4134.359,4151.7949,4145.641,4127.6923,4125.1282
4100.5128,4102.0513,4083.5897,4251.7949,4100,4141.5385,4110.7692,4124.1026,4138.4615,4128.7179,4108.7179,4105.1282
4097.9487,4104.1026,4086.1538,4248.7179,4087.6923,4133.3333,4113.3333,4122.0513,4136.9231,4130.2564,4108.2051,4101.0256
4089.7436,4104.6154,4086.6667,4233.3333,4081.5385,4128.7179,4109.7436,4124.6154,4137.4359,4135.3846,4107.6923,4101.5385
4109.2308,4108.2051,4098.4615,4248.2051,4109.7436,4133.3333,4112.8205,4141.5385,4144.6154,4145.1282,4120.5128,4116.4103
4137.4359,4122.5641,4116.4103,4275.3846,4116.9231,4130.7692,4128.7179,4158.9744,4161.5385,4157.9487,4143.5897,4137.9487
4126.1538,4114.359,4106.1538,4267.1795,4072.8205,4124.6154,4128.7179,4152.3077,4155.8974,4145.641,4140.5128,4128.7179
4093.8462,4104.1026,4080,4240.5128,4053.8462,4116.4103,4112.8205,4132.3077,4126.6667,4113.8462,4110.2564,4096.9231
4089.2308,4104.6154,4078.9744,4240,4098.4615,4110.2564,4107.6923,4123.0769,4114.359,4106.6667,4097.9487,4088.7179
4107.1795,4105.641,4095.3846,4256.9231,4130.2564,4122.5641,4111.7949,4125.641,4127.1795,4124.6154,4114.8718,4105.1282
4121.5385,4116.4103,4108.2051,4264.1026,4116.9231,4112.8205,4115.3846,4136.9231,4138.4615,4139.4872,4133.3333,4118.9744
4117.9487,4110.7692,4109.7436,4262.0513,4106.6667,4091.7949,4119.4872,4143.5897,4136.9231,4138.9744,4135.3846,4117.4359
4102.0513,4103.0769,4098.9744,4257.4359,4093.3333,4113.8462,4122.0513,4135.8974,4127.6923,4131.7949,4124.1026,4103.5897
4106.1538,4107.1795,4097.9487,4256.9231,4065.641,4117.9487,4118.4615,4133.3333,4127.1795,4135.3846,4126.1538,4104.1026
4098.9744,4099.4872,4095.3846,4238.4615,4062.5641,4113.3333,4108.2051,4125.1282,4122.0513,4127.6923,4122.0513,4103.0769
4082.5641,4103.0769,4092.8205,4226.6667,4097.9487,4130.2564,4108.2051,4123.5897,4125.641,4121.0256,4116.4103,4097.9487
4103.5897,4110.7692,4109.7436,4254.8718,4122.5641,4111.7949,4118.4615,4148.2051,4151.7949,4145.1282,4142.5641,4116.9231
4108.2051,4106.6667,4109.7436,4268.2051,4093.3333,4079.4872,4118.9744,4155.8974,4150.2564,4146.6667,4146.6667,4116.9231
4086.1538,4105.641,4089.2308,4247.1795,4082.0513,4098.4615,4116.4103,4139.4872,4127.6923,4118.9744,4121.0256,4094.8718
4096.9231,4108.7179,4091.2821,4241.0256,4111.2821,4123.0769,4124.1026,4138.9744,4130.2564,4124.6154,4126.6667,4101.5385
4102.5641,4111.7949,4099.4872,4242.0513,4082.5641,4103.5897,4122.0513,4140,4133.8462,4136.4103,4135.3846,4109.2308
4078.4615,4101.0256,4088.2051,4228.2051,4046.6667,4100.5128,4111.2821,4121.5385,4118.4615,4117.4359,4118.4615,4091.7949
4083.0769,4102.5641,4087.1795,4234.8718,4093.8462,4124.1026,4118.4615,4123.5897,4123.0769,4116.9231,4120,4092.8205
4099.4872,4114.359,4100,4248.2051,4126.6667,4123.5897,4128.7179,4145.641,4136.4103,4135.8974,4132.3077,4108.7179
4086.1538,4106.6667,4095.3846,4236.4103,4097.9487,4109.2308,4123.5897,4141.5385,4127.1795,4130.2564,4122.5641,4098.9744
4085.641,4111.2821,4089.2308,4236.4103,4083.5897,4102.5641,4120,4130.2564,4128.7179,4127.1795,4127.1795,4095.3846
4105.1282,4113.3333,4097.9487,4252.3077,4086.6667,4105.641,4126.1538,4140.5128,4146.1538,4144.6154,4145.641,4116.9231
4098.9744,4102.0513,4095.8974,4245.641,4076.9231,4116.4103,4129.2308,4143.0769,4135.3846,4140.5128,4129.7436,4114.359
4077.9487,4103.0769,4077.9487,4227.1795,4086.1538,4125.1282,4124.1026,4123.5897,4106.6667,4116.4103,4094.359,4084.6154
4084.6154,4106.1538,4077.9487,4231.7949,4111.2821,4121.0256,4121.0256,4121.0256,4110.2564,4115.3846,4089.7436,4085.641
4093.3333,4109.7436,4086.1538,4238.4615,4103.5897,4112.3077,4124.1026,4130.2564,4123.5897,4122.5641,4093.3333,4097.9487
4066.6667,4100,4069.2308,4221.5385,4068.7179,4117.4359,4123.0769,4116.9231,4111.2821,4108.7179,4065.641,4073.8462
4055.3846,4095.8974,4057.4359,4202.0513,4062.5641,4127.1795,4118.4615,4105.641,4101.0256,4094.8718,4053.8462,4053.3333
4083.0769,4113.3333,4075.8974,4211.7949,4094.359,4121.0256,4123.5897,4118.4615,4117.9487,4104.1026,4094.359,4072.3077
4098.9744,4109.7436,4092.8205,4234.359,4108.2051,4105.641,4126.6667,4134.359,4147.6923,4124.1026,4110.7692,4086.6667
4091.2821,4106.6667,4092.8205,4236.4103,4100.5128,4098.9744,4123.5897,4137.4359,4157.4359,4134.8718,4073.3333,4070.2564
4096.9231,4114.8718,4089.7436,4229.7436,4102.5641,4107.6923,4131.2821,4139.4872,4157.4359,4137.9487,4056.4103,4059.4872
4092.8205,4108.7179,4090.2564,4237.9487,4103.0769,4116.9231,4137.4359,4141.5385,4161.0256,4146.1538,4071.2821,4049.2308
4074.359,4109.2308,4092.3077,4244.1026,4100,4120.5128,4134.359,4135.3846,4147.6923,4145.1282,4069.2308,4046.6667
4095.8974,4109.7436,4091.7949,4246.6667,4097.4359,4126.1538,4135.3846,4125.641,4136.9231,4132.8205,4030.7692,4058.4615
4125.1282,4114.8718,4086.6667,4256.9231,4094.8718,4125.1282,4137.9487,4121.0256,4134.8718,4124.1026,4014.359,4037.4359
4160,4124.1026,4098.4615,4265.641,4100,4121.0256,4136.9231,4125.1282,4117.4359,4125.641,4095.8974,4004.6154
4224.1026,4124.1026,4120,4273.8462,4101.5385,4121.5385,4131.2821,4122.0513,4082.5641,4111.2821,4181.0256,4007.1795
4241.5385,4135.8974,4122.0513,4278.9744,4088.2051,4113.3333,4125.1282,4118.4615,4111.7949,4121.5385,4089.2308,3959.4872
4251.2821,4144.6154,4135.8974,4294.359,4090.7692,4106.6667,4127.1795,4131.2821,4184.6154,4201.0256,3937.4359,3865.641
4341.5385,4153.3333,4171.7949,4360.5128,4122.5641,4111.7949,4129.7436,4134.359,4143.0769,4229.7436,4011.7949,3877.9487
4415.8974,4168.7179,4170.2564,4478.9744,4160.5128,4113.8462,4129.7436,4127.6923,4058.9744,4164.6154,4201.5385,3920.5128
4465.641,4187.6923,4122.5641,4637.9487,4181.0256,4102.0513,4131.2821,4131.7949,4087.1795,4146.6667,4269.2308,3839.4872
4652.3077,4245.1282,4095.8974,4888.7179,4192.8205,4083.5897,4127.6923,4128.2051,4072.8205,4158.9744,4436.9231,3805.641
4903.0769,4316.4103,4101.5385,5191.7949,4229.2308,4081.0256,4124.1026,4115.8974,3916.4103,4102.5641,4867.6923,3894.359
5066.6667,4368.2051,4096.4103,5431.2821,4283.0769,4099.4872,4135.3846,4133.3333,3841.0256,4062.5641,5292.8205,3900.5128
5197.9487,4422.5641,4064.1026,5618.4615,4318.4615,4113.3333,4157.9487,4170.7692,3911.7949,4091.2821,5577.9487,3840
5321.0256,4474.359,4039.4872,5775.3846,4350.2564,4129.2308,4183.0769,4189.7436,3935.3846,4078.9744,5914.359,3878.4615
5383.5897,4508.2051,4058.9744,5841.0256,4386.6667,4152.8205,4203.5897,4208.7179,3968.2051,4054.359,6244.1026,3920.5128
5394.359,4517.4359,4085.1282,5853.3333,4409.2308,4161.5385,4208.2051,4243.5897,4069.2308,4105.1282,6398.4615,3869.7436
5405.1282,4527.6923,4091.7949,5902.5641,4427.1795,4173.8462,4219.4872,4273.8462,4073.3333,4137.9487,6568.7179,3864.6154
5440.5128,4545.1282,4104.6154,5950.2564,4474.8718,4221.0256,4251.2821,4298.4615,4028.7179,4095.3846,6834.359,3967.1795
5457.4359,4537.9487,4121.0256,5949.7436,4528.7179,4261.0256,4266.6667,4327.6923,4098.4615,4075.3846,6949.2308,4048.7179
5438.9744,4519.4872,4122.0513,5927.6923,4544.1026,4277.4359,4263.5897,4354.8718,4192.8205,4109.7436,6900.5128,4032.3077
5436.4103,4489.2308,4132.3077,5894.359,4542.5641,4301.5385,4269.7436,4371.7949,4207.6923,4135.8974,6914.359,3988.2051
5443.0769,4461.5385,4164.1026,5849.7436,4552.3077,4298.9744,4279.4872,4386.6667,4207.1795,4136.4103,7014.8718,3995.8974
5423.5897,4448.2051,4191.7949,5810.2564,4551.7949,4261.5385,4283.5897,4400,4218.4615,4135.3846,7091.2821,4027.1795
5418.9744,4415.8974,4212.3077,5782.5641,4542.5641,4257.4359,4289.2308,4405.641,4253.8462,4150.7692,7095.3846,4022.5641
5415.8974,4392.3077,4232.3077,5755.3846,4542.5641,4283.5897,4293.8462,4401.0256,4300.5128,4182.5641,7035.3846,4008.7179
5373.3333,4382.0513,4246.1538,5721.0256,4554.359,4295.8974,4296.4103,4400,4269.7436,4186.6667,7014.8718,4053.3333
5335.8974,4364.6154,4251.2821,5680.5128,4569.7436,4302.5641,4308.2051,4417.9487,4222.0513,4174.8718,7024.6154,4070.7692
5314.8718,4350.2564,4244.1026,5639.4872,4565.641,4307.6923,4309.7436,4416.9231,4228.7179,4169.7436,6998.9744,4021.5385
5264.1026,4332.3077,4232.8205,5599.4872,4533.8462,4294.8718,4283.5897,4376.4103,4214.8718,4144.6154,6935.3846,4016.9231
5226.1538,4327.6923,4249.7436,5567.1795,4518.9744,4272.3077,4276.9231,4365.641,4153.8462,4135.3846,6870.7692,4056.4103
5225.1282,4322.0513,4282.0513,5538.4615,4507.6923,4264.6154,4305.1282,4392.8205,4097.9487,4147.6923,6856.9231,4046.6667
5201.0256,4297.9487,4290.2564,5497.4359,4478.9744,4269.7436,4323.0769,4392.3077,4066.6667,4132.3077,6868.2051,4013.8462
5167.1795,4279.4872,4300,5455.8974,4478.4615,4253.3333,4324.1026,4389.7436,4076.9231,4123.0769,6826.1538,4026.1538
5161.0256,4257.9487,4330.2564,5420.5128,4492.8205,4224.6154,4324.6154,4413.3333,4089.2308,4146.6667,6755.8974,4029.7436
5135.3846,4246.1538,4343.0769,5369.2308,4467.6923,4226.1538,4323.5897,4412.8205,4060,4143.5897,6704.1026,4006.1538
5095.8974,4244.6154,4346.1538,5303.0769,4449.2308,4248.2051,4332.3077,4398.9744,4065.1282,4134.359,6642.0513,4010.7692
5090.7692,4240,4363.0769,5254.8718,4455.3846,4256.4103,4345.1282,4404.6154,4101.0256,4154.359,6603.5897,4037.9487
5076.4103,4246.6667,4364.6154,5231.7949,4450.7692,4256.4103,4340,4402.5641,4100,4156.4103,6560,4030.7692
5035.8974,4242.5641,4359.4872,5220,4446.1538,4257.4359,4337.9487,4394.8718,4106.1538,4153.8462,6452.3077,3991.2821
5012.3077,4238.4615,4374.359,5211.2821,4443.0769,4252.3077,4348.7179,4397.9487,4138.4615,4167.1795,6371.2821,3982.5641
4995.3846,4241.0256,4373.8462,5193.3333,4444.6154,4256.4103,4350.2564,4392.8205,4132.8205,4142.5641,6347.6923,4007.1795
4971.7949,4234.359,4354.359,5169.2308,4431.7949,4270.2564,4345.641,4384.1026,4093.3333,4088.2051,6327.6923,4036.4103
4946.1538,4232.3077,4356.9231,5141.5385,4390.2564,4269.2308,4347.1795,4383.5897,4090.7692,4076.4103,6270.7692,4028.7179
4917.4359,4222.5641,4368.7179,5095.3846,4372.3077,4252.8205,4345.1282,4383.0769,4110.2564,4090.7692,6224.1026,3994.359
4885.1282,4215.3846,4366.1538,5039.4872,4384.1026,4242.5641,4340,4380.5128,4114.359,4077.4359,6195.3846,3991.2821
4863.0769,4217.4359,4367.1795,4997.9487,4380.5128,4242.5641,4338.4615,4374.8718,4120,4060,6134.8718,3997.4359
4853.8462,4210.7692,4380.5128,4969.2308,4359.4872,4244.1026,4339.4872,4367.6923,4126.1538,4058.9744,6077.4359,3996.9231
4840,4213.3333,4389.7436,4945.1282,4334.8718,4240,4342.5641,4361.5385,4078.4615,4052.8205,6033.8462,4000.5128
4812.3077,4209.7436,4389.2308,4934.8718,4326.1538,4234.359,4337.4359,4352.8205,3967.1795,4048.7179,5962.5641,3992.3077
4794.8718,4207.1795,4394.8718,4929.7436,4351.7949,4241.0256,4331.2821,4349.2308,3862.5641,4057.9487,5880,3988.7179
4791.7949,4210.2564,4407.6923,4916.4103,4350.7692,4245.641,4335.3846,4350.7692,3787.1795,4055.8974,5832.8205,4011.2821
4771.2821,4201.5385,4411.2821,4902.5641,4312.3077,4237.4359,4333.8462,4344.6154,3742.5641,4041.5385,5789.2308,4017.9487
4741.0256,4203.5897,4410.7692,4881.0256,4314.359,4239.4872,4330.7692,4334.8718,3754.8718,4039.4872,5722.5641,3992.8205
4727.1795,4203.0769,4413.3333,4842.0513,4320,4245.1282,4332.8205,4335.8974,3798.9744,4048.7179,5666.1538,3993.8462
4724.6154,4192.8205,4416.9231,4800,4282.5641,4234.359,4331.7949,4340.5128,3817.4359,4047.1795,5649.7436,4022.5641
4698.9744,4190.2564,4411.7949,4743.0769,4261.0256,4229.2308,4324.6154,4322.0513,3810.7692,4021.5385,5645.1282,4028.7179
4660.5128,4183.5897,4405.641,4647.6923,4268.2051,4233.3333,4316.4103,4298.4615,3831.2821,4001.5385,5601.5385,4004.1026
4653.8462,4186.1538,4413.8462,4562.5641,4252.8205,4221.5385,4311.2821,4298.9744,3853.3333,4014.359,5531.2821,3981.0256
4668.2051,4191.2821,4426.1538,4550.7692,4236.9231,4210.7692,4309.7436,4304.1026,3851.2821,4032.3077,5496.9231,3986.6667
4662.0513,4194.8718,4433.8462,4577.9487,4260.5128,4226.6667,4319.4872,4302.0513,3940,4028.2051,5484.6154,4004.1026
4651.7949,4202.5641,4438.4615,4589.2308,4289.2308,4248.2051,4338.4615,4317.9487,4142.0513,4029.2308,5441.0256,4020.5128
4663.5897,4200,4444.6154,4600.5128,4298.9744,4260.5128,4345.641,4336.9231,4263.5897,4042.5641,5417.4359,4054.359
4662.0513,4201.5385,4446.1538,4610.7692,4303.0769,4263.5897,4336.4103,4324.6154,4277.4359,4053.3333,5407.6923,4071.7949
4640,4201.0256,4440,4598.9744,4310.2564,4261.5385,4328.7179,4307.6923,4306.6667,4061.5385,5371.2821,4056.9231
4621.0256,4194.359,4425.1282,4575.3846,4282.5641,4257.9487,4329.2308,4304.1026,4328.7179,4051.2821,5338.4615,4057.9487
4607.1795,4193.8462,4413.8462,4553.3333,4239.4872,4252.3077,4327.6923,4307.1795,4331.2821,4041.5385,5301.5385,4068.2051
4600,4185.1282,4413.8462,4538.4615,4246.1538,4246.6667,4323.5897,4310.2564,4349.2308,4052.3077,5246.6667,4053.3333
4593.3333,4189.2308,4417.4359,4529.7436,4273.3333,4242.5641,4324.6154,4306.1538,4343.5897,4052.3077,5221.0256,4045.641
4593.8462,4192.8205,4420,4521.5385,4262.0513,4244.6154,4330.2564,4305.1282,4361.5385,4051.2821,5196.9231,4077.4359
4591.7949,4181.5385,4426.6667,4510.2564,4243.0769,4251.2821,4331.2821,4307.6923,4404.6154,4073.3333,5120,4079.4872
4580.5128,4189.2308,4445.1282,4504.1026,4258.4615,4265.1282,4338.4615,4318.4615,4374.8718,4092.8205,5097.9487,4052.3077
4588.7179,4192.3077,4465.641,4511.7949,4275.8974,4286.6667,4356.9231,4337.4359,4338.9744,4098.4615,5145.1282,4091.2821
4598.4615,4187.1795,4462.0513,4517.9487,4264.6154,4292.3077,4361.5385,4338.9744,4378.4615,4090.2564,5114.8718,4153.3333
4583.5897,4187.1795,4450.7692,4509.7436,4253.8462,4281.0256,4354.8718,4327.1795,4411.7949,4077.4359,5044.1026,4144.6154
4572.8205,4181.0256,4458.9744,4490.7692,4268.7179,4281.5385,4355.8974,4329.2308,4403.5897,4085.1282,5044.1026,4118.9744
4555.8974,4178.4615,4461.0256,4470.7692,4267.1795,4290.2564,4352.3077,4329.7436,4405.641,4094.359,5046.6667,4125.641
4522.0513,4171.2821,4444.1026,4451.2821,4236.4103,4287.6923,4345.641,4314.359,4421.0256,4088.2051,4996.4103,4118.4615
4508.2051,4174.359,4444.1026,4441.0256,4241.0256,4282.0513,4348.7179,4310.7692,4428.2051,4092.8205,4962.0513,4121.0256
4508.2051,4183.0769,4452.3077,4441.0256,4264.1026,4275.8974,4344.1026,4319.4872,4435.3846,4103.5897,4948.7179,4152.3077
4499.4872,4176.4103,4450.2564,4440,4262.5641,4272.3077,4338.9744,4323.5897,4446.6667,4109.7436,4925.1282,4153.3333
4498.4615,4180,4448.7179,4429.7436,4256.9231,4282.0513,4350.7692,4321.0256,4456.4103,4120,4890.7692,4134.359
4501.0256,4180,4445.641,4418.9744,4256.4103,4292.3077,4352.8205,4316.4103,4466.1538,4117.4359,4827.6923,4144.1026
4482.0513,4176.4103,4435.8974,4419.4872,4258.9744,4289.7436,4340,4308.2051,4474.8718,4112.3077,4733.8462,4139.4872
4466.6667,4177.9487,4431.2821,4415.8974,4258.9744,4284.6154,4329.7436,4302.5641,4467.1795,4124.6154,4686.1538,4125.641
4472.3077,4170.7692,4429.7436,4401.0256,4241.5385,4282.0513,4320,4300,4448.7179,4125.641,4709.7436,4162.5641
4470.7692,4175.3846,4427.1795,4393.3333,4236.9231,4281.5385,4319.4872,4297.9487,4460,4116.4103,4711.2821,4193.3333
4458.4615,4178.4615,4428.2051,4389.7436,4260,4284.6154,4328.7179,4305.1282,4492.3077,4137.4359,4664.6154,4167.6923
4450.2564,4172.8205,4431.2821,4374.8718,4257.9487,4281.5385,4330.2564,4310.7692,4492.3077,4156.4103,4641.0256,4156.4103
4436.9231,4173.8462,4427.1795,4356.9231,4234.8718,4276.4103,4325.641,4301.5385,4479.4872,4138.9744,4634.8718,4168.7179
4435.3846,4171.7949,4425.641,4356.9231,4238.4615,4282.5641,4326.6667,4293.8462,4480,4123.0769,4618.4615,4173.3333
4439.4872,4174.359,4432.3077,4363.5897,4250.7692,4281.5385,4328.7179,4294.359,4481.5385,4125.1282,4596.9231,4189.7436
4414.8718,4174.359,4424.1026,4358.4615,4250.2564,4275.3846,4323.0769,4288.7179,4478.9744,4124.1026,4565.641,4188.7179
4389.2308,4169.7436,4407.1795,4346.6667,4237.9487,4276.4103,4315.8974,4278.4615,4476.4103,4117.9487,4544.1026,4163.0769
4393.8462,4171.7949,4404.6154,4352.3077,4223.0769,4272.3077,4312.3077,4278.4615,4474.8718,4114.359,4549.7436,4177.9487
4389.7436,4168.2051,4410.7692,4355.3846,4224.6154,4265.1282,4309.7436,4275.3846,4471.7949,4119.4872,4546.1538,4198.9744
4367.1795,4165.641,4407.6923,4327.6923,4213.3333,4266.1538,4306.6667,4269.2308,4474.359,4124.6154,4504.6154,4165.1282
4361.5385,4163.5897,4407.1795,4314.359,4205.1282,4260,4306.6667,4273.3333,4474.8718,4124.1026,4469.7436,4154.8718
4363.0769,4163.5897,4421.5385,4327.6923,4226.1538,4248.2051,4306.1538,4280,4471.7949,4131.7949,4463.5897,4200.5128
4357.4359,4171.2821,4430.7692,4319.4872,4226.1538,4250.7692,4297.9487,4272.8205,4469.7436,4138.9744,4474.8718,4221.5385
4362.0513,4170.7692,4429.7436,4304.1026,4204.1026,4251.2821,4290.7692,4265.1282,4474.8718,4137.9487,4473.3333,4209.7436
4366.1538,4174.359,4432.8205,4312.3077,4213.8462,4234.8718,4293.8462,4271.7949,4496.4103,4148.2051,4429.7436,4198.9744
4348.7179,4172.3077,4435.8974,4307.6923,4210.2564,4226.6667,4299.4872,4276.4103,4497.4359,4154.8718,4403.0769,4195.3846
4321.5385,4159.4872,4424.1026,4286.1538,4172.3077,4234.8718,4290.2564,4263.0769,4467.6923,4128.2051,4413.3333,4199.4872
4317.9487,4170.2564,4420,4295.3846,4192.8205,4237.9487,4285.1282,4258.4615,4473.8462,4125.1282,4386.1538,4193.8462
4325.641,4173.8462,4433.3333,4314.359,4234.8718,4238.9744,4296.9231,4267.1795,4496.9231,4156.4103,4350.2564,4190.2564
4309.2308,4163.5897,4428.2051,4297.4359,4217.9487,4238.4615,4303.5897,4262.0513,4464.1026,4142.0513,4373.3333,4215.3846
4289.7436,4163.0769,4415.8974,4275.3846,4203.5897,4239.4872,4301.5385,4261.0256,4437.9487,4115.3846,4392.8205,4225.1282
4292.3077,4161.5385,4421.0256,4274.8718,4208.2051,4243.0769,4301.5385,4275.3846,4471.2821,4135.8974,4363.0769,4196.9231
4296.4103,4161.5385,4424.6154,4263.5897,4183.5897,4231.7949,4301.0256,4274.359,4488.7179,4148.7179,4348.2051,4197.4359
4281.0256,4158.9744,4413.8462,4244.1026,4169.2308,4221.5385,4290.7692,4258.4615,4463.5897,4130.2564,4353.8462,4222.0513
4273.3333,4164.1026,4416.9231,4257.4359,4204.1026,4230.2564,4285.1282,4259.4872,4450.7692,4134.359,4348.2051,4217.4359
4292.3077,4171.2821,4433.3333,4287.1795,4217.4359,4238.4615,4283.5897,4261.0256,4466.1538,4150.7692,4328.7179,4213.3333
4294.359,4166.6667,4430.7692,4297.9487,4195.3846,4232.3077,4276.4103,4245.1282,4480.5128,4151.7949,4291.2821,4213.3333
4281.0256,4172.3077,4430.2564,4314.359,4214.359,4227.1795,4278.9744,4249.7436,4475.3846,4157.4359,4288.2051,4224.6154
4292.8205,4174.359,4441.0256,4344.1026,4253.8462,4236.4103,4290.2564,4265.1282,4467.6923,4162.5641,4323.0769,4253.3333
4295.3846,4168.2051,4434.359,4353.8462,4249.2308,4246.1538,4291.2821,4253.3333,4473.8462,4155.3846,4314.8718,4258.9744
4265.1282,4168.2051,4414.8718,4341.0256,4233.8462,4244.6154,4285.641,4236.4103,4470.2564,4145.1282,4281.5385,4247.6923
4248.7179,4161.0256,4406.1538,4325.641,4235.3846,4238.4615,4282.0513,4238.9744,4455.8974,4139.4872,4282.5641,4245.641
4253.3333,4161.0256,4403.5897,4312.8205,4223.0769,4234.8718,4282.5641,4247.1795,4457.4359,4140.5128,4287.6923,4248.2051
4240,4161.5385,4392.3077,4297.4359,4210.7692,4236.9231,4285.1282,4246.1538,4472.3077,4148.7179,4257.9487,4240.5128
4228.2051,4156.4103,4388.7179,4282.5641,4215.8974,4243.0769,4286.1538,4246.1538,4481.5385,4164.1026,4238.9744,4229.2308
4236.4103,4160,4395.3846,4277.9487,4211.2821,4241.5385,4282.5641,4256.4103,4483.5897,4175.3846,4255.8974,4241.5385
4237.4359,4158.4615,4393.8462,4275.8974,4198.4615,4230.7692,4281.0256,4263.5897,4474.8718,4175.3846,4275.3846,4283.0769
4218.9744,4155.3846,4383.5897,4265.641,4199.4872,4225.641,4283.5897,4255.8974,4466.6667,4172.8205,4255.8974,4286.1538
4205.641,4154.8718,4378.4615,4256.9231,4213.3333,4235.8974,4280,4242.0513,4456.9231,4165.641,4227.6923,4244.6154
4210.7692,4156.4103,4381.5385,4265.641,4218.9744,4246.6667,4277.4359,4235.8974,4452.3077,4153.8462,4221.0256,4253.8462
4212.3077,4157.9487,4377.9487,4269.2308,4205.641,4244.6154,4282.0513,4234.8718,4466.6667,4155.3846,4203.5897,4276.4103
4200,4145.641,4358.4615,4241.5385,4187.1795,4241.5385,4275.3846,4224.6154,4453.8462,4152.3077,4180.5128,4249.2308
4179.4872,4148.7179,4343.5897,4218.9744,4188.7179,4246.6667,4265.641,4212.3077,4419.4872,4131.7949,4164.6154,4215.3846
4180,4160,4350.2564,4235.3846,4208.2051,4251.2821,4274.359,4223.0769,4428.2051,4136.4103,4160.5128,4228.7179
4194.8718,4156.4103,4359.4872,4252.8205,4212.8205,4240.5128,4279.4872,4239.4872,4457.9487,4161.0256,4166.6667,4260.5128
4182.5641,4155.3846,4344.1026,4235.8974,4179.4872,4223.5897,4263.5897,4226.6667,4439.4872,4151.7949,4166.1538,4256.9231
4167.6923,4156.9231,4326.1538,4230.2564,4172.8205,4223.0769,4256.4103,4212.8205,4420,4133.8462,4162.5641,4247.1795
4172.3077,4161.0256,4325.641,4250.2564,4212.3077,4232.8205,4265.641,4221.5385,4445.1282,4148.2051,4144.1026,4250.7692
4171.7949,4158.9744,4325.1282,4253.3333,4225.641,4232.3077,4263.5897,4227.6923,4449.7436,4162.0513,4126.6667,4246.6667
4168.7179,4152.3077,4326.1538,4246.6667,4214.359,4230.2564,4258.4615,4226.6667,4429.7436,4160,4143.5897,4248.7179
4171.2821,4156.9231,4328.2051,4245.641,4214.8718,4237.9487,4262.0513,4223.5897,4425.1282,4157.4359,4164.1026,4275.3846
4157.9487,4149.2308,4317.9487,4235.3846,4213.3333,4236.9231,4259.4872,4217.4359,4431.2821,4157.9487,4135.8974,4286.1538
4136.4103,4137.9487,4308.7179,4210.7692,4198.9744,4222.5641,4251.2821,4212.8205,4432.3077,4156.4103,4088.2051,4265.641
4130.7692,4137.9487,4311.2821,4184.1026,4186.6667,4215.3846,4250.7692,4208.7179,4425.1282,4155.3846,4068.2051,4241.5385
4125.1282,4136.9231,4306.6667,4168.2051,4183.5897,4219.4872,4249.7436,4201.0256,4410.2564,4150.7692,4075.8974,4236.4103
4118.4615,4146.1538,4295.3846,4165.641,4185.1282,4216.4103,4239.4872,4195.3846,4405.1282,4144.6154,4087.1795,4256.4103
4122.5641,4151.7949,4293.8462,4169.7436,4180,4205.641,4230.7692,4196.4103,4414.8718,4143.5897,4083.0769,4263.5897
4124.1026,4150.7692,4293.8462,4175.8974,4173.3333,4199.4872,4226.1538,4193.3333,4418.4615,4143.0769,4066.6667,4237.4359
4121.0256,4154.359,4294.8718,4185.1282,4191.7949,4201.5385,4227.6923,4188.2051,4428.2051,4152.8205,4040.5128,4224.6154
4121.5385,4151.2821,4294.359,4191.2821,4209.2308,4203.5897,4226.1538,4189.2308,4431.7949,4165.1282,4031.7949,4249.7436
4120.5128,4151.7949,4283.0769,4191.7949,4196.4103,4201.0256,4221.0256,4190.2564,4410.7692,4157.9487,4054.8718,4272.3077
4127.1795,4149.7436,4278.4615,4186.6667,4190.2564,4203.0769,4225.641,4187.1795,4397.9487,4150.2564,4067.6923,4274.359
4122.5641,4147.6923,4279.4872,4174.8718,4197.4359,4203.0769,4230.2564,4182.5641,4402.0513,4149.7436,4045.641,4267.6923
4091.2821,4153.3333,4268.2051,4163.0769,4190.7692,4197.9487,4226.1538,4181.5385,4397.4359,4142.0513,4029.2308,4250.7692
4083.5897,4146.1538,4258.4615,4162.5641,4184.6154,4197.9487,4224.6154,4181.5385,4394.8718,4142.5641,4032.3077,4232.3077
4101.5385,4145.641,4262.5641,4167.1795,4190.7692,4205.641,4233.3333,4184.6154,4398.4615,4153.8462,4028.7179,4238.9744
4097.4359,4150.2564,4261.5385,4171.7949,4191.7949,4208.7179,4232.3077,4183.5897,4397.4359,4151.2821,4023.5897,4265.641
4090.2564,4148.2051,4260,4174.8718,4190.2564,4204.1026,4221.5385,4181.5385,4396.4103,4149.2308,4022.0513,4271.2821
4093.8462,4149.7436,4261.0256,4168.2051,4184.6154,4197.9487,4217.9487,4184.1026,4392.8205,4156.4103,4006.1538,4253.3333
4078.4615,4141.0256,4247.6923,4149.7436,4167.6923,4196.9231,4214.8718,4178.9744,4377.4359,4150.2564,3975.3846,4246.1538
4068.7179,4140.5128,4243.0769,4137.9487,4155.3846,4196.9231,4214.359,4171.2821,4365.1282,4137.4359,3968.2051,4257.4359
4078.4615,4148.2051,4256.9231,4133.3333,4157.4359,4185.1282,4211.7949,4170.7692,4372.3077,4141.5385,3977.9487,4268.2051
4076.4103,4142.0513,4265.641,4123.0769,4154.8718,4173.3333,4206.1538,4169.7436,4390.7692,4161.5385,3957.9487,4254.8718
4076.9231,4140,4269.2308,4124.1026,4153.3333,4177.9487,4207.1795,4168.2051,4389.7436,4171.2821,3941.0256,4232.8205
4088.7179,4142.5641,4272.3077,4140,4169.7436,4187.6923,4211.2821,4170.7692,4361.5385,4152.3077,3971.2821,4258.9744
4087.6923,4148.2051,4269.7436,4143.5897,4178.9744,4183.0769,4207.6923,4172.3077,4355.8974,4147.6923,3976.9231,4289.7436
4075.3846,4148.2051,4262.5641,4139.4872,4166.6667,4171.2821,4202.0513,4176.4103,4377.9487,4170.7692,3938.9744,4260.5128
4075.8974,4140,4265.641,4144.1026,4161.5385,4165.641,4200,4183.0769,4374.8718,4170.7692,3942.5641,4243.5897
4088.7179,4143.5897,4276.9231,4146.6667,4170.7692,4168.2051,4202.0513,4186.6667,4355.3846,4156.9231,3965.641,4272.8205
4092.3077,4145.1282,4278.9744,4143.0769,4175.8974,4172.8205,4207.6923,4187.6923,4354.359,4163.0769,3961.0256,4285.1282
4080,4144.1026,4266.6667,4131.7949,4165.641,4169.7436,4209.7436,4182.5641,4348.7179,4156.9231,3957.4359,4275.8974
4064.6154,4142.0513,4257.9487,4114.8718,4148.7179,4165.1282,4202.0513,4170.7692,4340,4136.9231,3942.0513,4267.1795
4063.5897,4137.4359,4264.1026,4106.6667,4141.0256,4160.5128,4195.8974,4168.2051,4346.6667,4142.0513,3920,4264.1026
4062.5641,4140.5128,4263.5897,4100.5128,4136.4103,4149.7436,4193.8462,4168.7179,4340,4149.7436,3925.1282,4267.1795
4052.8205,4135.8974,4253.3333,4092.3077,4130.7692,4149.2308,4193.8462,4160.5128,4323.5897,4137.9487,3929.7436,4264.6154
4051.7949,4134.8718,4247.6923,4086.1538,4129.7436,4158.9744,4194.8718,4156.9231,4322.0513,4134.8718,3920,4252.8205
4054.359,4142.5641,4248.7179,4082.0513,4131.7949,4159.4872,4195.8974,4166.1538,4343.5897,4154.8718,3914.8718,4253.3333
4053.8462,4140,4250.7692,4081.0256,4129.2308,4154.359,4195.3846,4173.8462,4360.5128,4175.3846,3901.0256,4250.2564
4050.2564,4137.4359,4248.7179,4075.8974,4114.8718,4154.359,4191.7949,4169.2308,4322.0513,4162.0513,3898.9744,4254.8718
4043.5897,4134.359,4241.0256,4067.1795,4108.2051,4158.4615,4183.5897,4156.4103,4271.7949,4148.2051,3895.8974,4267.6923
4038.4615,4133.8462,4235.8974,4065.641,4114.8718,4153.8462,4181.0256,4150.7692,4284.6154,4174.8718,3850.2564,4236.9231
4039.4872,4137.9487,4235.3846,4067.6923,4111.7949,4144.6154,4186.6667,4152.8205,4294.359,4178.9744,3845.1282,4225.641
4035.8974,4133.3333,4227.1795,4060.5128,4104.6154,4150.7692,4182.0513,4150.7692,4256.4103,4136.4103,3893.8462,4271.2821
4018.9744,4133.8462,4213.8462,4054.359,4103.0769,4158.4615,4175.3846,4148.7179,4253.3333,4132.8205,3867.6923,4250.7692
4016.9231,4136.4103,4214.359,4059.4872,4095.3846,4143.0769,4175.8974,4152.8205,4275.8974,4164.1026,3833.8462,4207.6923
4030.7692,4134.8718,4221.0256,4062.0513,4090.2564,4127.6923,4173.3333,4153.3333,4260.5128,4152.3077,3886.6667,4251.7949
4027.6923,4134.359,4215.3846,4050.2564,4099.4872,4138.4615,4167.6923,4151.2821,4254.8718,4132.8205,3891.7949,4283.5897
4010.7692,4129.7436,4203.0769,4038.4615,4099.4872,4143.5897,4164.6154,4150.2564,4271.2821,4150.7692,3821.0256,4229.2308
4000.5128,4134.359,4197.4359,4041.5385,4089.2308,4134.359,4160,4148.2051,4255.3846,4157.4359,3821.5385,4202.5641
4021.5385,4133.8462,4202.5641,4049.2308,4091.7949,4136.4103,4160,4152.3077,4232.3077,4146.1538,3876.9231,4250.2564
4041.0256,4130.7692,4204.1026,4043.5897,4097.9487,4144.6154,4169.2308,4157.4359,4254.359,4151.2821,3859.4872,4270.7692
4007.6923,4139.4872,4188.7179,4034.8718,4092.8205,4140,4169.2308,4153.8462,4275.8974,4161.0256,3797.9487,4216.4103
3994.359,4136.4103,4185.1282,4051.7949,4096.9231,4137.9487,4165.1282,4150.2564,4248.2051,4151.2821,3819.4872,4199.4872
4034.8718,4135.8974,4196.4103,4081.5385,4110.7692,4150.7692,4174.359,4153.8462,4241.5385,4141.5385,3857.4359,4248.2051
4037.4359,4141.0256,4192.3077,4086.6667,4115.8974,4160.5128,4176.9231,4154.359,4272.3077,4151.7949,3820.5128,4259.4872
4010.2564,4137.9487,4182.0513,4077.4359,4118.4615,4157.4359,4168.2051,4148.2051,4264.6154,4163.5897,3807.6923,4231.7949
4019.4872,4137.9487,4183.5897,4081.5385,4110.2564,4151.7949,4168.7179,4141.5385,4234.8718,4153.8462,3850.2564,4228.7179
4023.5897,4132.8205,4178.4615,4082.0513,4089.2308,4145.641,4168.7179,4137.4359,4228.7179,4140,3858.4615,4241.0256
4006.6667,4130.7692,4168.2051,4064.6154,4083.0769,4136.9231,4158.4615,4134.8718,4231.7949,4148.7179,3837.9487,4239.4872
4009.7436,4135.3846,4171.2821,4054.8718,4092.3077,4134.8718,4150.2564,4137.4359,4238.9744,4162.0513,3836.4103,4227.6923
4008.2051,4131.2821,4168.2051,4052.3077,4086.6667,4137.4359,4151.7949,4136.9231,4236.4103,4158.9744,3830.2564,4220
3990.7692,4128.7179,4154.8718,4042.5641,4077.9487,4136.9231,4153.8462,4127.6923,4215.3846,4148.2051,3822.5641,4228.7179
3991.2821,4126.1538,4153.3333,4038.4615,4085.641,4137.9487,4153.3333,4126.1538,4223.0769,4154.359,3815.8974,4228.7179
4001.0256,4129.7436,4160,4045.1282,4088.2051,4139.4872,4151.7949,4132.8205,4253.3333,4170.7692,3793.3333,4211.7949
4005.641,4135.8974,4162.0513,4047.6923,4084.1026,4138.9744,4154.8718,4134.8718,4251.7949,4172.3077,3795.8974,4223.0769
4000.5128,4127.1795,4154.359,4042.0513,4077.4359,4136.4103,4152.3077,4127.1795,4236.9231,4159.4872,3815.8974,4239.4872
3996.9231,4125.1282,4144.6154,4040,4066.6667,4135.3846,4139.4872,4117.4359,4218.4615,4146.6667,3827.1795,4234.8718
3999.4872,4127.1795,4140,4045.1282,4067.1795,4139.4872,4143.0769,4116.4103,4216.4103,4143.0769,3812.3077,4223.0769
3981.5385,4128.7179,4130.7692,4043.5897,4073.8462,4141.5385,4150.7692,4117.9487,4239.4872,4141.5385,3772.8205,4205.1282
3968.2051,4128.7179,4123.0769,4037.9487,4074.359,4143.0769,4143.5897,4118.9744,4237.4359,4137.9487,3780,4201.5385
3991.2821,4123.0769,4133.8462,4045.1282,4076.9231,4149.2308,4137.9487,4122.0513,4211.7949,4141.0256,3834.8718,4224.6154
3996.9231,4131.2821,4140,4060,4083.0769,4137.9487,4138.9744,4115.3846,4210.7692,4149.2308,3841.0256,4226.6667
3970.7692,4133.3333,4127.1795,4057.9487,4077.9487,4122.0513,4134.359,4099.4872,4226.1538,4153.3333,3800.5128,4196.4103
3973.3333,4127.1795,4127.1795,4051.2821,4069.7436,4128.2051,4127.6923,4100,4231.7949,4153.3333,3788.2051,4194.8718
3993.3333,4130.2564,4140,4053.3333,4070.2564,4134.359,4130.7692,4109.7436,4228.2051,4154.359,3800.5128,4217.9487
3989.7436,4126.1538,4140,4045.641,4069.7436,4129.2308,4134.359,4105.641,4213.3333,4153.3333,3821.5385,4227.6923
3980,4127.1795,4134.8718,4039.4872,4064.6154,4131.7949,4136.4103,4104.6154,4209.7436,4152.8205,3830.7692,4222.0513
3981.0256,4126.6667,4130.2564,4040,4057.4359,4138.4615,4133.8462,4106.6667,4228.7179,4155.3846,3803.0769,4195.8974
3975.8974,4125.1282,4125.1282,4036.4103,4052.8205,4138.4615,4132.8205,4103.0769,4234.8718,4154.359,3779.4872,4177.4359
3966.6667,4134.8718,4125.641,4041.5385,4058.4615,4133.8462,4137.9487,4105.1282,4227.1795,4154.8718,3794.359,4202.5641
3976.4103,4133.8462,4127.1795,4062.0513,4071.7949,4131.2821,4131.2821,4109.7436,4230.7692,4165.1282,3806.1538,4226.6667
3989.7436,4134.8718,4125.641,4075.8974,4074.8718,4135.8974,4126.1538,4105.1282,4229.2308,4167.6923,3806.6667,4220.5128
3981.5385,4136.4103,4117.4359,4074.8718,4077.9487,4136.9231,4132.3077,4098.4615,4220,4155.8974,3800,4213.8462
3967.6923,4130.2564,4105.1282,4069.7436,4080,4131.2821,4132.3077,4099.4872,4226.6667,4157.9487,3780.5128,4205.641
3970.2564,4127.6923,4096.4103,4059.4872,4065.641,4136.9231,4127.1795,4097.9487,4228.7179,4161.0256,3793.3333,4198.9744
3971.2821,4125.641,4092.3077,4054.8718,4062.5641,4141.5385,4128.2051,4088.7179,4221.0256,4148.2051,3816.9231,4203.5897
3967.6923,4136.4103,4101.0256,4065.1282,4068.7179,4122.5641,4129.2308,4091.2821,4224.6154,4154.8718,3814.359,4203.0769
3985.641,4138.4615,4114.8718,4072.8205,4067.1795,4111.2821,4123.5897,4109.2308,4231.2821,4171.2821,3829.2308,4213.3333
3998.9744,4126.6667,4110.2564,4066.6667,4058.9744,4120,4121.0256,4109.2308,4213.8462,4151.7949,3854.8718,4226.1538
3980.5128,4130.7692,4096.4103,4061.0256,4052.8205,4112.8205,4123.0769,4091.2821,4196.9231,4133.8462,3830.2564,4197.4359
3971.7949,4134.359,4104.6154,4071.7949,4062.5641,4097.9487,4122.0513,4096.9231,4207.1795,4158.9744,3797.4359,4174.8718
3985.1282,4131.2821,4114.359,4077.4359,4073.8462,4100,4117.9487,4111.2821,4215.8974,4174.359,3814.359,4197.4359
3993.3333,4129.7436,4110.2564,4070.7692,4064.6154,4102.5641,4117.4359,4104.6154,4201.5385,4157.9487,3835.3846,4214.359
3999.4872,4130.7692,4116.9231,4070.7692,4052.8205,4100,4118.4615,4095.8974,4182.5641,4153.3333,3838.4615,4208.7179
4002.5641,4135.8974,4123.0769,4073.8462,4058.4615,4100.5128,4111.7949,4096.9231,4186.6667,4158.4615,3833.8462,4202.5641
3989.2308,4132.3077,4115.8974,4075.8974,4064.6154,4101.5385,4105.1282,4097.9487,4203.0769,4162.5641,3814.359,4186.6667
3993.3333,4131.7949,4118.4615,4082.5641,4064.1026,4102.0513,4109.7436,4096.9231,4206.1538,4177.4359,3799.4872,4184.1026
4005.1282,4135.8974,4121.5385,4091.2821,4072.3077,4108.7179,4109.2308,4087.6923,4181.0256,4172.8205,3818.9744,4206.6667
3990.7692,4132.8205,4106.6667,4097.9487,4083.0769,4117.4359,4104.1026,4079.4872,4163.0769,4148.2051,3834.359,4207.6923
3994.8718,4137.4359,4102.0513,4104.1026,4087.6923,4118.4615,4109.2308,4091.2821,4190.2564,4156.9231,3817.4359,4194.8718
4014.8718,4135.8974,4109.2308,4106.6667,4081.5385,4110.2564,4111.7949,4100.5128,4207.6923,4175.8974,3821.0256,4202.0513
3990.2564,4130.2564,4101.0256,4100.5128,4073.8462,4102.5641,4105.641,4091.2821,4191.2821,4165.641,3835.8974,4195.8974
3975.8974,4132.3077,4098.4615,4104.6154,4081.0256,4105.1282,4109.7436,4092.8205,4189.2308,4166.6667,3835.8974,4189.2308
4012.3077,4133.8462,4113.3333,4126.1538,4093.3333,4113.8462,4117.9487,4105.641,4211.2821,4186.6667,3848.7179,4218.9744
4017.4359,4140.5128,4112.3077,4146.1538,4100,4114.359,4113.3333,4102.0513,4215.3846,4186.1538,3855.8974,4224.1026
4006.6667,4140.5128,4105.641,4169.2308,4104.6154,4112.3077,4104.1026,4089.7436,4204.6154,4181.5385,3831.7949,4198.9744
4039.4872,4142.5641,4116.9231,4204.6154,4111.2821,4115.3846,4104.1026,4090.2564,4201.5385,4186.6667,3835.8974,4228.7179
4047.1795,4150.2564,4118.9744,4220,4115.3846,4116.9231,4109.2308,4092.3077,4203.0769,4185.641,3855.3846,4266.1538
4014.8718,4136.9231,4103.0769,4199.4872,4097.4359,4109.2308,4108.7179,4081.5385,4203.5897,4185.1282,3830.7692,4238.4615
4015.8974,4134.8718,4103.5897,4189.2308,4079.4872,4107.6923,4101.0256,4077.9487,4195.3846,4183.0769,3822.0513,4216.4103
4023.5897,4144.6154,4108.2051,4187.1795,4085.1282,4111.7949,4092.8205,4081.0256,4184.1026,4171.2821,3848.7179,4232.8205
3998.4615,4137.9487,4092.3077,4162.0513,4077.9487,4105.1282,4088.7179,4073.8462,4180.5128,4164.1026,3843.5897,4230.7692
3986.1538,4133.8462,4084.6154,4144.1026,4060,4101.5385,4089.2308,4074.8718,4185.641,4171.2821,3819.4872,4207.6923
3993.3333,4131.7949,4089.7436,4154.359,4077.4359,4108.2051,4091.2821,4088.7179,4182.0513,4174.359,3842.0513,4208.7179
3990.7692,4130.7692,4086.6667,4154.359,4094.8718,4105.1282,4090.7692,4087.6923,4187.6923,4172.8205,3848.2051,4212.8205
3981.5385,4127.1795,4074.8718,4133.3333,4072.3077,4102.0513,4086.1538,4074.8718,4200.5128,4170.7692,3802.0513,4197.4359
3968.7179,4125.1282,4060,4121.0256,4057.9487,4108.7179,4087.1795,4073.8462,4180,4158.9744,3796.9231,4182.0513
3965.1282,4130.2564,4050.2564,4120,4066.6667,4103.5897,4093.8462,4080.5128,4158.4615,4149.7436,3827.6923,4169.7436
3976.4103,4125.1282,4052.8205,4122.0513,4064.1026,4090.7692,4093.8462,4080,4159.4872,4143.0769,3826.1538,4167.6923
3975.8974,4126.1538,4056.9231,4124.1026,4063.5897,4092.8205,4090.7692,4076.4103,4167.1795,4140.5128,3789.7436,4171.7949
3974.359,4127.1795,4057.9487,4124.1026,4073.8462,4097.4359,4089.2308,4075.8974,4173.3333,4155.3846,3778.4615,4181.0256
3982.5641,4122.0513,4063.5897,4124.1026,4074.359,4096.4103,4088.7179,4082.0513,4172.3077,4162.0513,3814.359,4196.4103
3968.7179,4127.1795,4060,4119.4872,4068.2051,4103.0769,4091.7949,4088.7179,4169.2308,4150.2564,3825.1282,4186.6667
3972.3077,4125.1282,4056.4103,4111.7949,4074.359,4112.8205,4095.8974,4092.8205,4187.6923,4163.5897,3800,4174.359
3999.4872,4121.5385,4057.4359,4104.1026,4065.641,4102.5641,4091.2821,4088.7179,4193.8462,4176.4103,3803.0769,4183.5897
3982.0513,4122.5641,4045.1282,4097.9487,4050.7692,4089.2308,4082.0513,4076.4103,4162.5641,4151.7949,3816.9231,4176.4103
3955.8974,4118.9744,4043.0769,4089.7436,4065.641,4093.8462,4079.4872,4072.8205,4173.8462,4156.4103,3776.4103,4149.2308
3985.641,4125.1282,4060,4090.7692,4075.8974,4094.8718,4081.0256,4080,4203.5897,4182.5641,3758.4615,4157.4359
4003.0769,4128.2051,4058.4615,4101.5385,4067.6923,4094.359,4079.4872,4080.5128,4174.8718,4158.9744,3801.5385,4181.0256
3980.5128,4125.641,4041.0256,4106.6667,4070.7692,4098.9744,4077.9487,4071.2821,4139.4872,4131.2821,3814.8718,4175.3846
3980,4123.0769,4046.1538,4105.1282,4075.8974,4097.4359,4081.5385,4068.2051,4157.4359,4151.7949,3783.5897,4161.0256
3997.9487,4119.4872,4054.8718,4106.1538,4077.4359,4093.8462,4085.641,4073.3333,4174.8718,4168.2051,3774.359,4166.1538
3986.6667,4127.1795,4048.7179,4112.3077,4090.2564,4103.0769,4091.7949,4078.9744,4167.1795,4166.1538,3790.2564,4177.9487
3970.2564,4124.1026,4049.7436,4111.7949,4089.2308,4114.8718,4094.8718,4084.1026,4178.4615,4181.5385,3784.1026,4158.4615
3978.4615,4116.9231,4046.1538,4100,4066.6667,4108.2051,4088.2051,4078.4615,4178.4615,4177.9487,3780.5128,4146.6667
3981.0256,4121.0256,4026.6667,4086.1538,4061.5385,4095.3846,4078.9744,4063.5897,4149.2308,4141.5385,3794.359,4167.6923
3957.4359,4121.5385,4022.0513,4076.9231,4067.1795,4090.2564,4076.9231,4055.3846,4141.0256,4132.3077,3785.641,4155.8974
3950.2564,4122.0513,4038.9744,4068.2051,4057.4359,4088.7179,4080.5128,4062.5641,4155.8974,4153.3333,3774.8718,4131.7949
3968.2051,4117.9487,4040,4055.8974,4045.641,4090.2564,4075.8974,4068.7179,4160,4151.7949,3786.1538,4151.7949
3964.1026,4114.8718,4024.6154,4046.1538,4047.6923,4093.3333,4066.1538,4056.4103,4146.6667,4133.3333,3782.0513,4157.9487
3950.7692,4119.4872,4022.5641,4042.5641,4049.2308,4087.6923,4063.0769,4042.0513,4141.5385,4131.2821,3765.641,4130.7692
3965.641,4117.4359,4029.7436,4050.2564,4043.5897,4080,4064.6154,4045.1282,4150.7692,4136.9231,3766.6667,4131.2821
3977.9487,4118.4615,4031.2821,4052.8205,4040.5128,4084.6154,4067.1795,4053.8462,4156.4103,4138.9744,3770.7692,4137.4359
3977.4359,4115.3846,4026.1538,4037.9487,4038.4615,4084.6154,4064.6154,4049.2308,4146.1538,4140.5128,3774.8718,4138.9744
3975.8974,4110.2564,4020.5128,4027.6923,4028.7179,4073.3333,4058.4615,4040,4140,4140,3768.7179,4141.5385
3963.5897,4115.8974,4017.4359,4029.2308,4024.1026,4071.7949,4061.0256,4045.641,4137.4359,4136.4103,3749.2308,4121.0256
3959.4872,4115.8974,4018.4615,4030.2564,4033.8462,4079.4872,4067.1795,4058.4615,4133.3333,4135.8974,3765.1282,4116.9231
3980.5128,4117.9487,4027.6923,4037.9487,4042.5641,4078.9744,4068.2051,4061.5385,4153.8462,4146.1538,3782.0513,4153.8462
3989.2308,4122.0513,4036.4103,4057.4359,4054.8718,4073.8462,4071.2821,4061.5385,4171.2821,4156.4103,3766.1538,4163.0769
3974.359,4121.5385,4035.3846,4065.1282,4064.1026,4070.7692,4075.8974,4062.5641,4159.4872,4156.4103,3764.6154,4123.0769
3971.2821,4123.0769,4032.3077,4060.5128,4051.2821,4064.1026,4068.2051,4057.4359,4142.5641,4146.6667,3783.5897,4117.4359
3990.7692,4116.4103,4037.4359,4065.1282,4047.1795,4059.4872,4058.4615,4053.3333,4132.8205,4137.9487,3793.3333,4159.4872
3999.4872,4116.4103,4041.0256,4063.0769,4060,4058.4615,4059.4872,4052.8205,4133.8462,4140,3781.0256,4160
3983.0769,4118.4615,4033.8462,4044.6154,4052.3077,4053.8462,4053.3333,4044.6154,4128.2051,4142.5641,3768.2051,4121.0256
3967.6923,4112.3077,4030.2564,4030.2564,4033.3333,4046.1538,4039.4872,4036.9231,4105.641,4132.3077,3773.3333,4118.9744
3981.5385,4115.3846,4040,4027.1795,4030.7692,4033.3333,4040,4043.5897,4109.7436,4133.8462,3766.1538,4119.4872
3997.4359,4116.4103,4043.0769,4021.0256,4029.2308,4024.1026,4043.0769,4047.1795,4127.1795,4143.5897,3755.3846,4104.6154
3987.6923,4120,4033.3333,4015.3846,4023.0769,4023.0769,4035.8974,4041.0256,4101.5385,4126.6667,3774.359,4118.4615
3982.5641,4126.1538,4036.9231,4022.5641,4027.6923,4024.1026,4035.8974,4043.5897,4086.1538,4116.9231,3783.0769,4126.1538
4002.0513,4121.0256,4046.6667,4033.8462,4036.4103,4027.1795,4042.5641,4051.7949,4109.2308,4133.3333,3771.7949,4121.5385
4012.3077,4123.0769,4040,4034.359,4039.4872,4031.2821,4043.5897,4051.2821,4109.7436,4133.3333,3776.4103,4131.2821
4010.7692,4123.5897,4036.4103,4031.2821,4038.4615,4035.8974,4044.6154,4047.6923,4093.3333,4124.1026,3787.1795,4131.7949
4010.7692,4123.5897,4036.4103,4031.2821,4038.4615,4035.8974,4044.6154,4047.6923,4093.3333,4124.1026,3787.1795,4131.7949
4020.5128,4122.0513,4048.7179,4035.8974,4033.8462,4035.8974,4045.641,4051.2821,4098.9744,4134.359,3776.4103,4122.5641
4029.2308,4122.0513,4056.4103,4035.8974,4030.2564,4033.8462,4040,4054.8718,4110.2564,4144.1026,3763.0769,4137.4359
4029.2308,4118.4615,4055.3846,4026.6667,4034.359,4037.4359,4041.0256,4056.9231,4109.7436,4141.5385,3772.3077,4154.359
4023.0769,4120.5128,4050.7692,4020,4031.7949,4037.9487,4048.2051,4058.9744,4097.9487,4137.9487,3785.1282,4139.4872
4009.2308,4115.3846,4043.5897,4013.3333,4025.1282,4030.7692,4046.1538,4056.4103,4093.3333,4132.8205,3778.9744,4125.1282
4002.5641,4112.3077,4040.5128,4004.1026,4023.0769,4031.7949,4042.5641,4049.2308,4104.1026,4127.6923,3755.3846,4130.2564
4003.0769,4118.4615,4031.7949,4000,4024.1026,4039.4872,4043.0769,4044.1026,4097.9487,4123.0769,3749.7436,4133.8462
3993.8462,4112.8205,4022.0513,4002.0513,4022.0513,4037.4359,4039.4872,4036.9231,4083.0769,4117.9487,3755.3846,4125.1282
3986.1538,4113.8462,4028.2051,4000.5128,4021.5385,4033.3333,4034.8718,4034.8718,4093.8462,4120,3737.9487,4110.7692
3991.7949,4116.9231,4035.3846,3996.9231,4029.7436,4040,4037.9487,4042.5641,4102.5641,4124.1026,3723.0769,4108.7179
3992.8205,4113.3333,4029.2308,3995.8974,4041.5385,4045.1282,4041.0256,4042.0513,4091.2821,4122.0513,3724.1026,4118.4615
3984.6154,4114.359,4028.7179,3995.3846,4041.0256,4044.1026,4040.5128,4033.8462,4087.6923,4119.4872,3714.359,4128.2051
3982.0513,4110.2564,4033.3333,3987.1795,4028.2051,4045.641,4038.4615,4034.359,4093.3333,4125.1282,3687.6923,4128.2051
3978.9744,4108.2051,4030.7692,3974.359,4024.6154,4050.7692,4045.1282,4046.1538,4090.2564,4137.9487,3673.3333,4113.3333
3966.1538,4105.641,4027.1795,3969.7436,4030.7692,4051.7949,4056.9231,4056.9231,4088.7179,4141.5385,3669.7436,4108.2051
3957.9487,4105.641,4027.1795,3970.7692,4028.7179,4050.7692,4056.4103,4057.9487,4099.4872,4137.9487,3648.7179,4106.1538
3971.7949,4111.2821,4033.8462,3967.6923,4027.6923,4054.359,4051.7949,4058.9744,4105.1282,4144.6154,3633.3333,4103.0769
3980,4107.1795,4037.9487,3966.6667,4033.3333,4056.9231,4056.4103,4064.1026,4087.1795,4138.9744,3658.4615,4124.6154
3956.9231,4110.2564,4030.7692,3970.2564,4027.6923,4055.3846,4060.5128,4063.5897,4075.8974,4121.0256,3677.9487,4117.4359
3950.7692,4112.8205,4025.1282,3971.2821,4015.8974,4055.8974,4054.8718,4054.8718,4089.2308,4124.6154,3666.6667,4074.8718
3977.4359,4108.2051,4026.1538,3970.2564,4024.6154,4054.359,4048.7179,4049.2308,4092.3077,4131.7949,3671.7949,4083.5897
3980,4116.4103,4025.1282,3981.5385,4043.5897,4048.2051,4049.7436,4048.2051,4076.4103,4117.9487,3692.3077,4112.8205
3973.8462,4120.5128,4024.6154,3999.4872,4050.2564,4049.7436,4053.3333,4051.7949,4075.3846,4123.0769,3711.2821,4102.0513
4003.5897,4121.5385,4033.8462,4011.7949,4053.8462,4057.4359,4061.0256,4063.5897,4092.3077,4146.6667,3746.6667,4117.9487
4018.4615,4123.0769,4038.9744,4016.9231,4066.6667,4065.641,4065.641,4070.7692,4093.3333,4144.6154,3787.1795,4157.9487
4002.5641,4121.0256,4038.4615,4023.0769,4077.4359,4070.7692,4064.1026,4068.2051,4078.9744,4139.4872,3809.2308,4140
4008.7179,4123.0769,4035.8974,4030.2564,4075.8974,4069.2308,4061.5385,4066.1538,4066.1538,4140,3825.641,4123.0769
4013.8462,4118.9744,4027.6923,4030.2564,4074.8718,4066.1538,4057.4359,4064.1026,4057.4359,4125.1282,3845.641,4137.4359
3987.6923,4120,4026.6667,4025.1282,4076.9231,4068.2051,4059.4872,4063.0769,4054.359,4124.6154,3836.4103,4102.5641
3980,4118.9744,4034.8718,4023.5897,4076.4103,4073.8462,4067.6923,4072.3077,4065.641,4144.1026,3805.1282,4081.0256
4000,4113.8462,4036.4103,4025.641,4072.8205,4079.4872,4067.1795,4076.9231,4054.8718,4135.8974,3816.4103,4126.1538
3986.6667,4117.4359,4021.5385,4007.1795,4065.641,4082.0513,4064.6154,4066.1538,4016.4103,4110.7692,3848.7179,4137.4359
3966.6667,4108.2051,4019.4872,3985.641,4056.9231,4081.5385,4071.2821,4063.5897,4027.6923,4121.0256,3818.9744,4088.7179
3980,4104.6154,4028.2051,3995.8974,4054.359,4080,4071.7949,4070.2564,4043.0769,4130.7692,3794.8718,4070.2564
3984.6154,4120.5128,4023.5897,4016.4103,4061.5385,4077.4359,4062.0513,4063.5897,4021.0256,4112.3077,3807.6923,4094.359
3958.9744,4116.9231,4015.3846,4009.7436,4066.6667,4071.2821,4058.4615,4057.4359,4053.8462,4130.2564,3752.3077,4075.8974
3947.6923,4105.1282,4018.9744,3990.2564,4053.3333,4068.7179,4060,4061.0256,4096.4103,4159.4872,3723.5897,4052.3077
3984.1026,4105.641,4022.5641,4000.5128,4044.1026,4077.4359,4061.5385,4057.9487,4016.9231,4121.0256,3847.6923,4086.6667
3976.4103,4109.2308,4015.8974,4010.2564,4055.3846,4078.4615,4061.5385,4045.1282,3938.4615,4066.6667,3945.641,4099.4872
3927.1795,4110.7692,4013.8462,3989.7436,4058.4615,4067.6923,4059.4872,4042.5641,3980.5128,4078.9744,3934.359,4049.2308
3961.0256,4109.7436,4020,3983.0769,4056.4103,4069.2308,4060,4055.3846,4013.8462,4106.6667,3994.359,4044.1026
3997.9487,4112.3077,4011.2821,3998.4615,4065.641,4078.9744,4061.5385,4058.9744,3977.9487,4088.2051,4105.1282,4077.9487
3950.7692,4109.2308,3991.7949,3993.3333,4074.359,4079.4872,4062.0513,4047.6923,3948.2051,4075.8974,4130.7692,4051.2821
3934.8718,4108.7179,3998.4615,3983.5897,4073.3333,4073.3333,4065.641,4048.2051,3948.7179,4093.3333,4121.5385,4031.2821
3958.4615,4117.4359,4013.3333,3999.4872,4077.9487,4069.2308,4067.6923,4062.0513,3941.5385,4096.9231,4134.359,4058.9744
3940,4112.3077,4006.1538,4012.3077,4084.6154,4065.641,4063.5897,4061.5385,3926.6667,4089.7436,4138.4615,4060.5128
3932.8205,4111.7949,3999.4872,4015.8974,4086.1538,4070.2564,4065.641,4055.3846,3936.9231,4100.5128,4115.3846,4050.7692
3956.9231,4115.3846,4005.641,4028.2051,4097.4359,4086.1538,4077.4359,4062.0513,3941.0256,4110.7692,4100,4068.2051
3950.7692,4112.8205,4003.0769,4039.4872,4106.6667,4087.6923,4073.8462,4059.4872,3934.8718,4111.2821,4066.6667,4078.9744
3953.3333,4115.3846,4002.5641,4043.0769,4107.1795,4075.8974,4070.2564,4050.7692,3933.3333,4118.9744,4040,4087.1795
3972.3077,4111.2821,4016.4103,4035.3846,4107.1795,4076.4103,4114.8718,4055.3846,3924.6154,4125.1282,4069.7436,4101.0256
3955.3846,4109.2308,4015.8974,4012.3077,4091.2821,4075.3846,4178.9744,4055.8974,3909.2308,4129.2308,4061.5385,4069.2308
3936.4103,4110.7692,4003.0769,3988.2051,4069.7436,4063.5897,4196.4103,4045.641,3888.2051,4124.6154,4020.5128,4044.1026
3943.5897,4108.7179,3997.9487,3985.641,4065.641,4057.9487,4183.0769,4040,3854.8718,4100.5128,4037.4359,4074.8718
3947.6923,4111.2821,4003.0769,3990.2564,4071.7949,4057.4359,4180.5128,4041.0256,3847.6923,4095.8974,4058.4615,4064.6154
3956.4103,4108.7179,4016.4103,3994.8718,4072.8205,4053.8462,4179.4872,4043.0769,3868.2051,4115.3846,4043.5897,4042.5641
3980.5128,4115.8974,4021.0256,4007.1795,4075.8974,4055.8974,4178.4615,4048.7179,3870.2564,4113.8462,4050.2564,4079.4872
3982.5641,4118.4615,4008.2051,4010.2564,4082.0513,4058.9744,4182.5641,4054.8718,3870.7692,4109.7436,4049.2308,4084.6154
3964.1026,4106.6667,4000,4003.0769,4086.1538,4055.8974,4180.5128,4055.3846,3877.9487,4118.9744,4025.641,4048.7179
3973.8462,4109.2308,4009.7436,4008.2051,4088.7179,4056.4103,4175.8974,4053.8462,3863.5897,4115.3846,4050.2564,4068.7179
3978.4615,4109.7436,4007.6923,4008.7179,4085.641,4062.5641,4172.3077,4049.7436,3855.8974,4104.1026,4069.2308,4092.3077
3961.5385,4103.0769,3997.4359,3991.2821,4082.0513,4066.1538,4170.7692,4047.6923,3862.0513,4104.6154,4042.5641,4062.5641
3969.7436,4102.5641,4004.6154,3985.641,4074.8718,4061.5385,4172.3077,4051.7949,3867.1795,4109.2308,4027.6923,4052.8205
3977.4359,4102.5641,4012.3077,3990.7692,4062.5641,4055.8974,4171.2821,4054.359,3874.8718,4114.8718,4013.8462,4066.6667
3972.3077,4108.7179,4011.7949,3990.2564,4065.1282,4055.8974,4170.2564,4056.4103,3875.3846,4119.4872,4009.2308,4072.3077
3985.641,4109.7436,4016.4103,3995.8974,4071.7949,4058.9744,4168.7179,4061.0256,3886.6667,4123.0769,4012.8205,4082.0513
3988.7179,4105.1282,4019.4872,4002.5641,4066.1538,4064.6154,4169.2308,4064.1026,3908.7179,4134.8718,3989.7436,4069.7436
4039.4872,4111.7949,4072.3077,4086.6667,4052.8205,4072.3077,4069.7436,4106.1538,4107.1795,4135.3846,3843.5897,4043.0769
4048.2051,4115.8974,4074.8718,4103.5897,4066.6667,4073.3333,4072.8205,4111.2821,4114.359,4134.359,3845.641,4056.4103
4075.3846,4110.2564,4083.0769,4117.9487,4076.4103,4075.3846,4074.8718,4122.0513,4121.5385,4137.9487,3856.4103,4083.0769
4065.1282,4112.8205,4077.9487,4117.9487,4077.9487,4072.3077,4069.7436,4111.7949,4109.7436,4135.8974,3851.2821,4065.641
4052.8205,4108.2051,4075.3846,4108.2051,4069.7436,4073.8462,4069.7436,4102.5641,4099.4872,4132.8205,3872.8205,4060.5128
4062.5641,4106.6667,4081.0256,4102.0513,4061.5385,4076.4103,4073.3333,4110.7692,4095.3846,4127.6923,3919.4872,4075.3846
4054.8718,4111.2821,4076.9231,4088.7179,4058.9744,4074.8718,4070.2564,4108.7179,4084.1026,4120,3921.0256,4056.4103
4045.1282,4105.641,4075.3846,4073.3333,4057.9487,4065.641,4064.6154,4101.5385,4085.1282,4120,3899.4872,4049.2308
4049.7436,4107.6923,4085.1282,4072.8205,4054.359,4062.0513,4065.1282,4108.2051,4104.1026,4127.1795,3904.6154,4062.0513
4042.0513,4104.6154,4081.0256,4067.6923,4050.7692,4075.3846,4064.1026,4109.2308,4098.4615,4124.6154,3909.7436,4050.7692
4029.7436,4104.1026,4072.3077,4060,4054.359,4077.9487,4061.0256,4102.0513,4083.5897,4120.5128,3891.7949,4045.1282
4038.9744,4109.7436,4078.4615,4068.7179,4057.9487,4056.9231,4058.9744,4107.1795,4096.9231,4125.641,3891.2821,4055.8974
4049.2308,4106.1538,4081.0256,4078.4615,4057.4359,4052.3077,4060.5128,4113.3333,4106.1538,4128.7179,3907.6923,4052.8205
4041.0256,4107.6923,4074.8718,4077.4359,4058.9744,4065.1282,4065.1282,4106.1538,4090.7692,4124.1026,3910.2564,4051.2821
4035.8974,4105.641,4073.8462,4072.3077,4057.9487,4061.5385,4063.5897,4100,4090.2564,4120,3902.0513,4058.4615
4039.4872,4100,4077.9487,4064.1026,4050.7692,4061.0256,4060.5128,4106.1538,4110.7692,4127.1795,3890.2564,4041.5385
4041.5385,4102.0513,4081.5385,4053.3333,4041.0256,4073.8462,4063.0769,4106.6667,4110.7692,4131.7949,3888.7179,4040
4032.3077,4098.9744,4080,4050.2564,4032.3077,4064.1026,4057.9487,4093.8462,4093.3333,4120.5128,3886.1538,4061.0256
4019.4872,4101.0256,4075.8974,4051.7949,4026.1538,4043.5897,4049.7436,4085.641,4093.3333,4111.7949,3875.3846,4048.7179
4022.0513,4101.5385,4074.359,4050.2564,4033.3333,4050.2564,4052.8205,4094.8718,4108.2051,4120,3876.9231,4030.7692
4027.1795,4096.4103,4072.8205,4050.2564,4043.5897,4067.1795,4060,4102.5641,4113.3333,4129.2308,3881.5385,4039.4872
4018.9744,4099.4872,4069.2308,4051.2821,4041.5385,4064.6154,4061.0256,4101.5385,4113.3333,4126.6667,3874.8718,4043.5897
4030.2564,4097.9487,4075.3846,4050.2564,4040.5128,4059.4872,4057.4359,4105.1282,4124.1026,4127.6923,3879.4872,4048.7179
4039.4872,4099.4872,4077.9487,4044.1026,4042.0513,4060.5128,4054.8718,4107.6923,4128.2051,4127.6923,3894.8718,4057.9487
4012.8205,4097.9487,4066.6667,4032.3077,4041.0256,4056.9231,4051.7949,4101.0256,4120,4115.3846,3888.7179,4046.6667
4010.2564,4097.9487,4067.6923,4035.3846,4043.0769,4051.7949,4047.6923,4094.359,4117.9487,4111.2821,3869.2308,4034.359
4036.9231,4108.2051,4080,4055.3846,4050.7692,4054.8718,4051.2821,4097.9487,4121.5385,4119.4872,3864.6154,4040
4033.3333,4105.641,4078.9744,4061.5385,4052.8205,4065.1282,4059.4872,4101.0256,4124.1026,4122.0513,3874.359,4040
4021.0256,4103.5897,4074.8718,4059.4872,4051.7949,4070.7692,4062.5641,4096.9231,4120,4115.8974,3875.3846,4030.7692
4031.7949,4105.641,4074.359,4076.4103,4063.0769,4069.7436,4063.5897,4095.3846,4117.4359,4116.4103,3868.7179,4030.2564
4044.1026,4105.1282,4075.3846,4095.3846,4076.4103,4071.7949,4070.2564,4103.5897,4129.7436,4129.2308,3881.0256,4050.2564
4046.6667,4110.2564,4084.1026,4095.3846,4072.8205,4078.9744,4076.9231,4113.8462,4144.1026,4140.5128,3894.359,4071.7949
4041.5385,4103.5897,4087.6923,4092.3077,4069.2308,4086.1538,4078.9744,4113.8462,4145.641,4137.9487,3884.1026,4061.0256
4031.2821,4101.0256,4077.9487,4088.7179,4071.7949,4086.1538,4076.9231,4112.3077,4140,4126.6667,3882.5641,4040
4026.6667,4104.6154,4072.8205,4076.4103,4053.8462,4078.9744,4071.2821,4111.7949,4138.9744,4115.8974,3889.7436,4041.0256
4015.8974,4095.3846,4070.7692,4058.9744,4029.7436,4077.4359,4065.641,4101.5385,4140,4109.7436,3875.3846,4044.6154
4000,4092.3077,4063.0769,4042.0513,4037.4359,4080,4065.1282,4092.8205,4138.4615,4107.1795,3864.1026,4032.8205
3995.8974,4094.359,4059.4872,4030.7692,4057.4359,4077.4359,4064.6154,4095.3846,4134.8718,4104.6154,3872.3077,4019.4872
3984.6154,4091.2821,4055.8974,4017.9487,4055.8974,4070.7692,4061.5385,4096.4103,4132.3077,4093.8462,3865.641,4008.7179
3957.9487,4080.5128,4040.5128,3977.4359,4038.9744,4063.0769,4055.8974,4083.5897,4128.7179,4082.5641,3845.641,3995.3846
3940.5128,4066.6667,4032.8205,3916.4103,4026.1538,4053.3333,4042.5641,4067.1795,4123.0769,4077.9487,3836.9231,3985.641
3934.8718,4073.3333,4033.8462,3879.4872,4018.4615,4044.6154,4032.8205,4060,4120,4071.2821,3820,3977.4359
3929.7436,4077.4359,4029.7436,3873.3333,4010.2564,4044.1026,4033.8462,4062.5641,4120.5128,4065.641,3793.8462,3969.7436
3925.1282,4072.3077,4017.9487,3858.4615,4009.2308,4044.1026,4033.8462,4065.1282,4122.0513,4065.641,3781.0256,3959.4872
3927.1795,4073.3333,4007.1795,3844.6154,4016.9231,4042.0513,4031.7949,4064.1026,4122.5641,4068.7179,3776.4103,3951.7949
3914.359,4065.1282,4006.6667,3845.641,3997.9487,4050.2564,4034.8718,4065.1282,4122.0513,4066.1538,3768.7179,3955.3846
3886.6667,4064.6154,4012.3077,3835.3846,3973.8462,4062.5641,4044.1026,4064.1026,4123.0769,4058.9744,3763.5897,3957.4359
3906.6667,4074.8718,4016.9231,3834.359,4003.5897,4058.4615,4046.1538,4061.5385,4125.1282,4061.5385,3777.4359,3956.9231
3938.9744,4080.5128,4013.3333,3852.3077,4037.9487,4044.1026,4038.9744,4058.4615,4121.0256,4058.9744,3788.2051,3954.359
3909.2308,4075.3846,3998.4615,3843.5897,4024.1026,4042.5641,4035.3846,4055.3846,4116.9231,4040,3768.7179,3938.4615
3862.5641,4055.8974,3986.6667,3809.2308,3993.3333,4036.4103,4032.3077,4051.7949,4121.5385,4033.3333,3741.5385,3913.8462
3852.3077,4055.8974,3989.7436,3779.4872,3969.7436,4018.4615,4026.1538,4051.7949,4121.5385,4043.0769,3738.4615,3905.641
3857.9487,4064.1026,3991.2821,3738.9744,3971.7949,4017.4359,4024.6154,4054.8718,4120.5128,4047.6923,3744.6154,3912.3077
3844.1026,4059.4872,3982.0513,3686.1538,3990.7692,4029.7436,4023.0769,4052.3077,4126.1538,4044.1026,3737.9487,3907.1795
3814.8718,4054.8718,3973.8462,3649.2308,3978.4615,4030.2564,4012.8205,4042.5641,4124.6154,4037.9487,3730.7692,3894.8718
3798.9744,4056.4103,3962.0513,3628.2051,3960,4020.5128,4003.0769,4032.3077,4128.7179,4031.7949,3722.0513,3889.2308
3805.641,4066.1538,3944.6154,3617.9487,3973.8462,4010.2564,3999.4872,4028.2051,4134.8718,4030.7692,3706.6667,3883.5897
3797.4359,4060,3930.2564,3607.6923,3958.4615,3996.4103,3992.8205,4023.5897,4115.8974,4023.0769,3694.359,3874.359
3776.9231,4049.2308,3922.5641,3589.2308,3918.4615,3987.6923,3987.1795,4013.8462,4104.1026,4006.6667,3677.4359,3863.0769
3774.359,4055.8974,3918.9744,3571.7949,3923.5897,3994.8718,3987.6923,4011.7949,4118.9744,4000.5128,3660.5128,3846.1538
3787.6923,4056.9231,3921.0256,3564.1026,3949.2308,4006.6667,3989.7436,4020.5128,4128.7179,4005.1282,3665.1282,3845.1282
3796.9231,4061.0256,3926.1538,3556.4103,3945.1282,4004.6154,3994.8718,4029.7436,4125.641,4007.6923,3679.4872,3858.9744
3789.7436,4060.5128,3924.6154,3543.0769,3929.7436,3993.3333,3996.4103,4025.641,4124.1026,4003.5897,3671.2821,3851.7949
3783.5897,4052.3077,3915.8974,3531.7949,3926.1538,3987.1795,3988.7179,4014.359,4125.641,3996.9231,3653.8462,3835.3846
3789.7436,4061.5385,3913.8462,3535.8974,3929.7436,3986.1538,3988.2051,4014.359,4134.8718,3998.9744,3656.9231,3830.2564
3797.9487,4064.6154,3922.5641,3539.4872,3929.7436,3987.6923,3993.8462,4020.5128,4140.5128,4003.5897,3669.2308,3830.2564
3804.1026,4062.0513,3924.6154,3528.2051,3924.1026,3984.6154,3993.3333,4021.5385,4137.4359,4000,3663.5897,3836.4103
3807.1795,4066.1538,3925.641,3522.0513,3926.1538,3980,3990.7692,4017.9487,4138.9744,3996.9231,3639.4872,3844.1026
3810.7692,4065.1282,3933.8462,3531.2821,3935.3846,3982.0513,3990.7692,4015.8974,4140.5128,4001.5385,3613.3333,3835.3846
3820,4069.2308,3940,3543.0769,3934.8718,3989.2308,3997.9487,4025.641,4141.0256,4010.2564,3598.9744,3829.7436
3840,4073.3333,3947.6923,3563.0769,3942.0513,4003.5897,4013.3333,4042.5641,4161.5385,4021.0256,3606.6667,3853.8462
3857.4359,4076.9231,3960,3587.1795,3957.4359,4013.3333,4023.0769,4049.7436,4186.6667,4029.7436,3617.4359,3873.8462
3858.4615,4077.9487,3962.5641,3594.359,3951.2821,4013.3333,4021.5385,4048.2051,4181.5385,4024.1026,3606.1538,3864.6154
3852.3077,4072.3077,3956.9231,3593.3333,3945.641,4017.9487,4024.6154,4054.359,4165.641,4018.4615,3586.6667,3862.5641
3856.4103,4079.4872,3956.9231,3607.1795,3963.5897,4021.0256,4031.7949,4066.6667,4174.359,4029.7436,3583.0769,3871.7949
3868.2051,4080.5128,3961.5385,3619.4872,3970.7692,4015.3846,4031.7949,4070.2564,4190.2564,4043.0769,3595.3846,3871.7949
3863.5897,4073.8462,3958.9744,3617.4359,3955.8974,4018.9744,4033.3333,4063.5897,4187.1795,4037.9487,3594.359,3872.8205
3858.4615,4076.4103,3953.8462,3617.9487,3957.4359,4037.9487,4042.0513,4066.1538,4182.5641,4032.3077,3578.4615,3872.8205
3863.5897,4073.8462,3960,3636.4103,3953.3333,4036.4103,4041.0256,4074.8718,4187.6923,4044.1026,3574.8718,3869.2308
3859.4872,4075.3846,3973.3333,3641.5385,3916.9231,4014.8718,4030.7692,4067.1795,4191.2821,4049.7436,3577.4359,3876.4103
3867.6923,4076.9231,3976.4103,3642.0513,3918.9744,4013.8462,4032.8205,4062.0513,4200.5128,4047.6923,3581.0256,3894.8718
3888.7179,4078.4615,3975.3846,3708.2051,3966.6667,4028.7179,4042.0513,4074.8718,4203.0769,4051.7949,3590.7692,3897.4359
3882.0513,4081.0256,3973.8462,3808.7179,3976.9231,4036.4103,4042.5641,4081.0256,4189.2308,4053.3333,3585.1282,3888.2051
3864.6154,4069.7436,3974.359,3845.1282,3954.359,4037.4359,4037.4359,4075.8974,4180,4051.7949,3567.6923,3891.2821
3872.8205,4071.7949,3980,3831.7949,3950.7692,4034.8718,4040.5128,4077.9487,4183.0769,4057.9487,3562.0513,3893.3333
3881.5385,4077.9487,3981.5385,3834.359,3951.2821,4028.2051,4042.5641,4077.4359,4180.5128,4063.5897,3556.4103,3893.3333
3871.7949,4074.8718,3978.9744,3843.0769,3948.7179,4031.2821,4040,4067.1795,4170.2564,4059.4872,3545.641,3897.4359
3874.8718,4079.4872,3987.1795,3844.1026,3957.4359,4038.9744,4041.5385,4064.6154,4171.7949,4060,3545.641,3900.5128
3890.2564,4077.9487,3994.359,3860,3954.8718,4033.3333,4036.9231,4071.7949,4173.8462,4064.6154,3546.6667,3906.6667
3893.8462,4078.9744,3989.7436,3875.3846,3942.5641,4026.6667,4031.2821,4071.7949,4164.1026,4064.1026,3540,3905.1282
3892.8205,4082.0513,3984.6154,3881.5385,3949.2308,4031.2821,4035.3846,4060,4157.9487,4056.4103,3531.7949,3896.4103
3901.5385,4082.0513,3989.2308,3890.2564,3968.7179,4046.1538,4045.1282,4061.5385,4168.2051,4053.3333,3522.0513,3899.4872
3910.7692,4086.6667,3998.4615,3901.0256,3979.4872,4054.8718,4055.8974,4082.5641,4171.2821,4067.1795,3527.6923,3908.7179
3915.3846,4082.5641,4005.1282,3907.1795,3976.9231,4056.4103,4064.6154,4091.2821,4149.7436,4077.9487,3548.7179,3915.8974
3916.9231,4083.0769,4006.1538,3909.7436,3979.4872,4063.0769,4071.2821,4084.1026,4134.8718,4077.9487,3545.1282,3924.6154
3915.8974,4084.6154,4005.641,3909.2308,3991.2821,4072.3077,4073.8462,4087.6923,4136.4103,4086.1538,3523.5897,3926.6667
3916.9231,4080,4005.1282,3907.6923,3989.2308,4066.6667,4069.7436,4092.8205,4126.1538,4092.8205,3528.2051,3922.5641
3923.5897,4082.5641,4010.7692,3921.5385,3988.2051,4062.0513,4067.1795,4090.2564,4121.0256,4083.5897,3531.2821,3933.8462
3933.8462,4080.5128,4017.4359,3938.4615,4001.5385,4073.3333,4072.3077,4091.2821,4132.8205,4082.5641,3493.8462,3953.3333
3931.7949,4085.1282,4013.8462,3932.3077,4003.0769,4072.8205,4070.2564,4085.641,4130.2564,4084.1026,3450.2564,3940
3927.1795,4089.7436,4013.3333,3926.6667,4002.5641,4071.7949,4063.5897,4074.359,4121.5385,4071.2821,3451.2821,3918.4615
3941.5385,4086.1538,4026.1538,3944.6154,4018.9744,4088.7179,4071.7949,4076.4103,4132.3077,4072.3077,3485.1282,3943.5897
3956.4103,4092.3077,4034.359,3964.6154,4022.5641,4089.7436,4078.4615,4081.5385,4140.5128,4086.1538,3500.5128,3984.6154
3961.5385,4091.7949,4035.8974,3962.5641,4018.4615,4076.9231,4071.7949,4080.5128,4132.8205,4088.2051,3498.4615,3989.2308
3966.1538,4087.1795,4034.359,3948.7179,4030.2564,4081.5385,4074.8718,4088.2051,4135.8974,4088.2051,3500.5128,3978.9744
3960.5128,4086.6667,4022.0513,3940,4029.2308,4092.8205,4079.4872,4095.3846,4138.9744,4086.1538,3501.5385,3983.5897
3949.2308,4082.0513,4017.9487,3941.0256,4017.4359,4097.9487,4075.8974,4091.2821,4134.8718,4082.5641,3494.8718,3978.4615
3953.8462,4086.1538,4032.8205,3948.2051,4014.8718,4096.4103,4080,4093.8462,4151.2821,4098.4615,3481.5385,3969.2308
3958.4615,4082.0513,4037.4359,3946.1538,3999.4872,4074.359,4078.9744,4097.4359,4160.5128,4111.7949,3483.0769,3981.5385
3958.9744,4080,4033.8462,3936.9231,3993.8462,4061.5385,4074.8718,4093.3333,4134.8718,4098.4615,3505.1282,4000
3972.3077,4090.7692,4035.8974,3938.4615,4024.1026,4080,4086.6667,4093.3333,4115.3846,4090.7692,3513.3333,4000
3972.8205,4084.6154,4029.7436,3944.6154,4038.4615,4097.4359,4092.8205,4094.8718,4118.9744,4089.2308,3494.8718,3982.0513
3951.7949,4077.9487,4012.8205,3939.4872,4009.7436,4087.1795,4080.5128,4089.7436,4113.3333,4075.3846,3480.5128,3965.1282
3951.2821,4083.0769,4012.8205,3935.3846,4001.0256,4077.9487,4081.5385,4089.2308,4111.7949,4078.4615,3491.2821,3969.7436
3966.6667,4089.2308,4030.2564,3949.7436,4016.4103,4084.6154,4092.3077,4094.8718,4131.2821,4099.4872,3508.2051,3980
3971.7949,4092.3077,4037.9487,3959.4872,4010.2564,4083.0769,4086.6667,4095.8974,4142.5641,4106.6667,3517.9487,3980.5128
3977.9487,4086.6667,4035.3846,3960.5128,4015.8974,4077.9487,4080,4093.3333,4143.5897,4105.1282,3532.8205,3989.7436
3978.9744,4086.1538,4031.7949,3964.6154,4040,4087.1795,4084.6154,4093.3333,4143.0769,4100.5128,3547.1795,3994.359
3970.2564,4083.5897,4026.6667,3967.1795,4038.4615,4095.3846,4086.6667,4097.9487,4136.4103,4087.6923,3540.5128,3978.4615
3974.8718,4083.0769,4026.6667,3965.641,4026.6667,4090.2564,4088.7179,4102.0513,4133.3333,4085.641,3529.2308,3976.9231
3984.1026,4089.2308,4027.6923,3965.641,4030.2564,4084.1026,4092.3077,4093.8462,4134.8718,4087.1795,3537.9487,3993.3333
3982.0513,4082.0513,4023.5897,3971.7949,4032.3077,4087.1795,4086.6667,4085.1282,4133.3333,4076.9231,3542.5641,3994.359
4006.6667,4093.8462,4050.2564,4006.6667,4053.3333,4115.3846,4108.2051,4114.8718,4154.8718,4098.4615,3558.4615,4013.3333
4071.7949,4117.4359,4116.4103,4071.2821,4107.1795,4166.6667,4166.1538,4172.8205,4205.641,4163.5897,3618.4615,4077.9487
4108.7179,4115.8974,4153.3333,4101.5385,4131.2821,4190.2564,4194.8718,4195.8974,4230.7692,4202.0513,3656.9231,4117.4359
4092.3077,4107.1795,4132.3077,4081.5385,4122.5641,4196.9231,4189.2308,4186.1538,4213.8462,4184.6154,3631.7949,4097.9487
4080.5128,4104.1026,4116.4103,4068.7179,4123.5897,4208.7179,4193.8462,4184.6154,4198.9744,4172.3077,3603.0769,4081.0256
4091.2821,4108.7179,4134.359,4081.5385,4118.4615,4191.7949,4192.3077,4184.1026,4206.6667,4189.2308,3606.6667,4098.4615
4094.359,4106.6667,4137.9487,4089.7436,4100,4165.1282,4170.7692,4170.2564,4208.2051,4189.7436,3611.2821,4113.8462
4093.3333,4099.4872,4123.0769,4090.2564,4111.2821,4167.1795,4164.1026,4163.0769,4200.5128,4173.8462,3606.6667,4109.2308
4102.5641,4109.7436,4129.2308,4097.4359,4145.1282,4171.7949,4172.3077,4167.6923,4206.1538,4179.4872,3614.359,4112.8205
4115.3846,4112.8205,4144.1026,4111.7949,4153.3333,4167.6923,4172.3077,4173.3333,4215.3846,4193.3333,3629.2308,4127.6923
4116.9231,4106.6667,4144.1026,4122.5641,4141.5385,4166.6667,4170.7692,4175.8974,4209.2308,4190.7692,3616.4103,4126.1538
4107.1795,4103.0769,4137.4359,4118.4615,4132.3077,4160,4169.2308,4169.7436,4201.5385,4182.5641,3569.7436,4114.8718
4097.4359,4097.9487,4129.7436,4107.1795,4127.1795,4158.9744,4169.2308,4166.1538,4199.4872,4175.8974,3514.8718,4107.6923
4094.359,4101.5385,4128.7179,4102.5641,4127.1795,4163.5897,4167.1795,4168.2051,4193.8462,4172.8205,3473.3333,4104.1026
4090.7692,4098.4615,4133.8462,4100,4113.3333,4153.3333,4153.8462,4157.4359,4183.5897,4173.3333,3450.7692,4106.6667
4077.9487,4093.8462,4128.2051,4091.2821,4089.2308,4138.4615,4148.7179,4147.6923,4180.5128,4161.0256,3436.9231,4112.3077
4070.7692,4097.4359,4118.4615,4086.6667,4098.9744,4137.9487,4164.1026,4164.6154,4196.9231,4151.7949,3435.3846,4116.9231
4086.1538,4101.0256,4128.2051,4095.8974,4134.359,4143.5897,4166.1538,4172.3077,4203.5897,4160.5128,3457.9487,4132.3077
4099.4872,4107.1795,4134.8718,4104.1026,4125.641,4148.2051,4148.2051,4147.1795,4169.2308,4153.3333,3455.8974,4144.6154
4094.8718,4101.5385,4126.1538,4107.1795,4097.9487,4155.8974,4144.6154,4132.3077,4144.1026,4138.4615,3425.641,4150.2564
4090.7692,4097.4359,4127.6923,4107.6923,4109.7436,4156.9231,4155.3846,4145.641,4163.0769,4147.1795,3426.6667,4172.3077
4089.2308,4100.5128,4136.9231,4107.1795,4125.641,4152.3077,4160,4157.4359,4177.4359,4155.3846,3445.1282,4199.4872
4090.7692,4098.4615,4139.4872,4113.3333,4114.8718,4157.4359,4155.8974,4148.7179,4177.4359,4150.7692,3433.8462,4213.3333
4100,4102.5641,4140.5128,4123.5897,4097.9487,4165.1282,4154.359,4137.9487,4192.8205,4159.4872,3434.359,4224.1026
4109.2308,4101.5385,4142.0513,4128.7179,4101.5385,4163.5897,4160.5128,4144.1026,4201.0256,4175.8974,3480,4236.9231
4115.3846,4103.0769,4140,4143.5897,4129.2308,4156.4103,4169.2308,4155.3846,4201.5385,4176.9231,3525.1282,4245.1282
4116.9231,4107.1795,4130.2564,4166.6667,4139.4872,4154.8718,4171.2821,4155.8974,4218.4615,4167.1795,3542.0513,4249.7436
4108.2051,4096.9231,4117.4359,4165.1282,4125.1282,4165.1282,4170.2564,4153.8462,4239.4872,4155.8974,3544.6154,4250.7692
4098.4615,4098.4615,4112.8205,4151.2821,4125.1282,4171.7949,4168.7179,4155.3846,4255.3846,4152.8205,3542.0513,4250.7692
4102.0513,4103.0769,4123.5897,4154.359,4134.359,4165.1282,4161.0256,4155.3846,4267.6923,4158.9744,3545.641,4261.5385
4096.4103,4094.8718,4125.641,4149.2308,4112.8205,4148.7179,4150.7692,4147.1795,4256.4103,4152.3077,3547.1795,4272.3077
4082.5641,4094.8718,4116.9231,4127.6923,4092.3077,4135.3846,4142.5641,4142.0513,4231.2821,4135.3846,3546.1538,4284.6154
4093.3333,4098.9744,4120.5128,4126.6667,4124.6154,4141.5385,4138.9744,4147.6923,4227.6923,4134.8718,3571.7949,4309.7436
4110.2564,4105.641,4128.7179,4146.6667,4150.2564,4147.6923,4136.9231,4140.5128,4229.2308,4143.0769,3611.2821,4324.6154
4102.0513,4102.5641,4115.8974,4148.2051,4130.2564,4152.8205,4134.359,4115.3846,4218.9744,4136.9231,3623.0769,4320.5128
4088.7179,4094.8718,4101.5385,4136.4103,4123.0769,4165.1282,4144.1026,4118.4615,4225.1282,4131.7949,3627.1795,4323.5897
4102.0513,4102.5641,4117.4359,4136.9231,4144.6154,4159.4872,4154.359,4144.6154,4262.5641,4148.2051,3657.9487,4353.8462
4108.7179,4100.5128,4128.7179,4139.4872,4143.5897,4138.4615,4140.5128,4143.5897,4288.2051,4161.0256,3679.4872,4373.8462
4094.8718,4095.3846,4114.8718,4134.359,4128.7179,4133.8462,4129.2308,4129.7436,4268.2051,4149.2308,3667.1795,4356.9231
4098.9744,4098.9744,4113.8462,4136.9231,4146.6667,4136.9231,4145.1282,4137.4359,4252.3077,4147.1795,3676.4103,4356.4103
4111.7949,4100,4121.0256,4147.1795,4158.9744,4143.5897,4149.2308,4144.6154,4265.1282,4161.0256,3707.6923,4390.7692
4104.6154,4103.0769,4109.7436,4153.3333,4155.3846,4165.1282,4138.4615,4131.2821,4258.9744,4150.7692,3708.7179,4400
4102.0513,4102.0513,4101.0256,4155.3846,4158.4615,4156.4103,4143.0769,4130.2564,4245.1282,4132.8205,3703.5897,4384.6154
4109.2308,4103.0769,4107.6923,4159.4872,4157.4359,4123.0769,4150.7692,4146.6667,4252.8205,4138.4615,3693.8462,4379.4872
4100.5128,4101.0256,4107.1795,4154.8718,4160.5128,4138.9744,4144.6154,4138.4615,4233.8462,4135.3846,3670.2564,4367.6923
4094.359,4094.8718,4104.6154,4142.5641,4146.1538,4158.9744,4130.2564,4116.9231,4206.1538,4124.6154,3688.2051,4352.3077
4102.0513,4101.5385,4108.2051,4141.5385,4122.5641,4129.7436,4123.0769,4115.3846,4205.1282,4133.8462,3722.5641,4358.9744
4109.2308,4103.5897,4109.7436,4156.9231,4132.3077,4117.9487,4130.2564,4120.5128,4203.0769,4146.6667,3710.7692,4381.5385
4113.8462,4103.5897,4112.8205,4175.8974,4156.4103,4142.5641,4140,4119.4872,4206.6667,4152.3077,3704.6154,4398.4615
4121.5385,4111.2821,4117.9487,4189.2308,4160.5128,4148.7179,4136.4103,4123.5897,4213.3333,4156.4103,3730.7692,4402.0513
4137.4359,4111.2821,4122.0513,4202.0513,4164.6154,4144.6154,4137.4359,4132.8205,4194.8718,4156.4103,3741.0256,4400.5128
4144.1026,4109.2308,4123.5897,4207.6923,4174.359,4153.3333,4156.4103,4140.5128,4181.0256,4157.4359,3740,4400
4134.359,4103.5897,4122.0513,4202.0513,4166.1538,4157.4359,4160,4142.0513,4182.5641,4157.9487,3742.0513,4395.3846
4131.7949,4106.6667,4121.0256,4203.0769,4164.6154,4157.4359,4148.2051,4139.4872,4169.7436,4151.7949,3763.5897,4390.2564
4140,4114.359,4124.1026,4211.7949,4173.3333,4159.4872,4149.2308,4141.0256,4164.1026,4150.7692,3819.4872,4393.3333
4133.8462,4105.1282,4124.6154,4206.6667,4174.8718,4158.4615,4156.4103,4140.5128,4162.5641,4154.359,3854.359,4393.8462
4118.9744,4105.641,4121.0256,4195.8974,4172.3077,4164.1026,4153.8462,4135.3846,4148.2051,4150.2564,3851.2821,4398.4615
4123.0769,4110.7692,4120,4205.1282,4168.2051,4172.3077,4148.2051,4134.359,4163.5897,4150.7692,3861.5385,4413.8462
4134.8718,4107.1795,4120.5128,4223.5897,4177.9487,4170.2564,4151.2821,4137.4359,4179.4872,4164.1026,3874.8718,4425.1282
4134.359,4108.2051,4121.0256,4230.7692,4187.6923,4169.7436,4153.8462,4141.5385,4144.6154,4168.2051,3860,4421.5385
4127.6923,4105.641,4121.0256,4222.5641,4179.4872,4172.3077,4150.7692,4138.4615,4115.3846,4161.5385,3847.1795,4411.7949
4118.9744,4102.5641,4121.5385,4212.8205,4162.0513,4162.0513,4150.2564,4138.9744,4138.4615,4164.6154,3851.7949,4404.6154
4124.1026,4100.5128,4126.1538,4221.5385,4164.6154,4150.7692,4151.2821,4152.3077,4147.1795,4177.9487,3866.1538,4409.7436
4136.9231,4104.6154,4130.7692,4229.7436,4178.4615,4154.8718,4153.3333,4155.3846,4113.3333,4175.3846,3880,4417.4359
4128.2051,4110.2564,4129.2308,4222.5641,4160.5128,4154.8718,4154.359,4141.0256,4091.7949,4157.9487,3874.359,4403.5897
4109.2308,4100,4120,4215.3846,4137.9487,4149.7436,4152.3077,4137.9487,4091.2821,4149.2308,3862.5641,4382.5641
4106.1538,4102.0513,4112.8205,4217.4359,4158.4615,4160.5128,4153.8462,4145.1282,4094.8718,4153.8462,3865.1282,4379.4872
4111.2821,4109.7436,4111.2821,4223.0769,4186.6667,4167.6923,4158.4615,4142.5641,4094.8718,4158.9744,3878.9744,4387.1795
4111.7949,4104.6154,4111.7949,4230.2564,4179.4872,4164.1026,4155.8974,4137.9487,4084.1026,4154.8718,3896.4103,4386.1538
4115.3846,4105.641,4112.3077,4234.359,4165.1282,4164.6154,4152.8205,4140.5128,4076.4103,4151.7949,3908.7179,4376.9231
4120,4105.1282,4111.2821,4229.2308,4169.7436,4164.1026,4155.8974,4146.6667,4102.5641,4157.9487,3907.6923,4371.7949
4119.4872,4108.2051,4110.2564,4229.2308,4180.5128,4160,4157.9487,4151.2821,4121.0256,4163.5897,3897.4359,4370.2564
4124.6154,4110.7692,4111.2821,4242.0513,4182.5641,4164.1026,4156.9231,4146.1538,4083.0769,4155.8974,3883.0769,4361.5385
4128.7179,4107.1795,4111.2821,4244.6154,4172.3077,4165.1282,4152.8205,4136.9231,4067.1795,4149.7436,3858.4615,4348.7179
4123.5897,4108.7179,4106.6667,4232.8205,4167.6923,4161.0256,4153.3333,4138.9744,4094.359,4155.8974,3835.8974,4342.5641
4121.0256,4105.1282,4104.1026,4228.2051,4180.5128,4164.1026,4158.4615,4142.5641,4077.4359,4151.2821,3835.8974,4334.359
4120.5128,4102.0513,4103.5897,4231.7949,4155.3846,4148.7179,4143.5897,4126.1538,4031.2821,4133.3333,3829.7436,4313.3333
4118.4615,4103.0769,4107.1795,4218.9744,4110.2564,4132.3077,4129.7436,4113.8462,4035.8974,4130.2564,3808.7179,4298.4615
4127.6923,4104.6154,4120.5128,4209.2308,4132.3077,4148.2051,4147.1795,4130.2564,4060.5128,4148.7179,3807.6923,4307.6923
4142.0513,4112.3077,4127.6923,4228.2051,4183.0769,4157.9487,4157.9487,4142.5641,4053.3333,4155.8974,3815.3846,4311.7949
4140,4106.1538,4127.1795,4240.5128,4180.5128,4142.5641,4142.0513,4125.1282,4051.7949,4147.1795,3805.1282,4299.4872
4134.359,4100.5128,4128.7179,4224.1026,4150.2564,4130.7692,4134.359,4117.4359,4068.2051,4145.1282,3797.9487,4288.2051
4148.2051,4110.7692,4127.6923,4211.2821,4151.2821,4136.4103,4142.5641,4136.4103,4073.8462,4146.6667,3807.1795,4278.9744
4161.5385,4113.3333,4121.0256,4218.9744,4163.0769,4144.6154,4143.5897,4141.5385,4067.6923,4145.1282,3800.5128,4262.0513
4152.8205,4110.2564,4120,4221.5385,4154.8718,4134.359,4137.4359,4127.1795,4051.7949,4140.5128,3781.0256,4238.9744
4144.6154,4105.1282,4118.4615,4214.359,4137.4359,4113.8462,4132.8205,4127.6923,4051.2821,4140,3783.5897,4222.0513
4152.8205,4102.5641,4111.7949,4213.8462,4137.4359,4117.4359,4133.3333,4135.3846,4051.2821,4141.0256,3784.6154,4207.6923
4153.8462,4102.0513,4105.1282,4211.7949,4135.8974,4128.2051,4134.359,4124.6154,4027.6923,4133.3333,3758.4615,4186.6667
4144.6154,4098.4615,4100,4204.6154,4095.8974,4111.7949,4123.5897,4107.6923,4015.3846,4118.4615,3747.1795,4163.0769
4136.9231,4098.4615,4094.8718,4187.1795,4071.7949,4104.6154,4115.3846,4101.0256,4032.3077,4108.7179,3755.3846,4152.3077
4132.3077,4091.7949,4082.5641,4166.6667,4102.5641,4125.1282,4118.4615,4103.0769,4031.2821,4101.0256,3746.1538,4144.6154
4141.0256,4094.359,4078.9744,4170.7692,4131.7949,4123.5897,4117.4359,4106.6667,4014.8718,4098.4615,3749.7436,4130.2564
4154.359,4109.2308,4090.2564,4185.641,4120,4103.0769,4107.6923,4102.0513,4034.8718,4105.1282,3772.3077,4123.5897
4150.2564,4101.0256,4093.8462,4178.4615,4101.5385,4100,4103.5897,4090.2564,4045.1282,4101.0256,3764.1026,4124.1026
4143.5897,4096.9231,4089.7436,4171.2821,4110.7692,4097.9487,4108.2051,4092.8205,4024.1026,4094.8718,3732.3077,4127.6923
4152.8205,4103.5897,4091.2821,4187.1795,4121.0256,4089.2308,4106.1538,4101.0256,4020.5128,4104.1026,3698.4615,4133.8462
4146.6667,4094.8718,4084.6154,4183.5897,4090.7692,4098.9744,4107.1795,4099.4872,4029.7436,4101.5385,3657.9487,4126.6667
4134.359,4093.8462,4072.3077,4158.4615,4076.4103,4109.7436,4111.2821,4090.2564,4045.1282,4089.2308,3641.0256,4114.8718
4138.4615,4096.4103,4072.3077,4154.359,4098.4615,4093.8462,4099.4872,4081.5385,4040,4089.2308,3638.9744,4113.8462
4132.8205,4092.8205,4072.8205,4152.8205,4088.7179,4092.3077,4105.1282,4101.5385,4008.2051,4087.1795,3613.3333,4106.6667
4128.2051,4091.2821,4078.9744,4147.1795,4073.3333,4116.9231,4124.6154,4122.5641,4000.5128,4087.1795,3611.7949,4107.6923
4136.4103,4092.8205,4081.5385,4147.1795,4063.0769,4099.4872,4092.3077,4078.4615,4028.7179,4089.2308,3638.9744,4117.4359
4142.5641,4100,4076.4103,4160.5128,4061.5385,4066.1538,4060.5128,4040.5128,4049.7436,4092.3077,3657.4359,4120
4163.5897,4104.1026,4092.3077,4192.3077,4114.359,4094.359,4097.4359,4085.1282,4057.9487,4105.1282,3690.2564,4137.9487
4198.9744,4112.3077,4115.3846,4221.0256,4179.4872,4131.2821,4135.3846,4128.2051,4069.2308,4108.7179,3717.4359,4167.1795
4201.0256,4110.2564,4108.2051,4214.8718,4171.2821,4124.6154,4129.2308,4119.4872,4070.2564,4091.2821,3713.8462,4165.1282
4194.359,4105.641,4102.0513,4203.0769,4170.7692,4119.4872,4127.6923,4128.2051,4073.3333,4095.3846,3719.4872,4157.4359
4196.9231,4106.6667,4106.6667,4201.5385,4182.0513,4125.1282,4127.6923,4122.0513,4050.7692,4092.3077,3710.2564,4153.3333
4171.7949,4090.7692,4083.5897,4174.8718,4133.3333,4117.9487,4114.8718,4091.7949,4033.3333,4055.3846,3676.9231,4126.6667
4181.0256,4100.5128,4086.1538,4171.2821,4166.6667,4118.9744,4128.7179,4130.2564,4086.1538,4075.3846,3685.1282,4141.5385
4234.8718,4126.6667,4115.8974,4200.5128,4238.4615,4113.8462,4134.8718,4157.9487,4097.4359,4115.3846,3704.6154,4191.7949
4253.3333,4118.9744,4114.359,4212.3077,4206.1538,4088.2051,4096.9231,4085.1282,4030.7692,4092.3077,3693.3333,4192.8205
4256.4103,4116.4103,4109.2308,4218.4615,4217.9487,4088.2051,4084.1026,4052.8205,4027.6923,4083.5897,3712.8205,4183.5897
4292.3077,4131.7949,4128.2051,4255.8974,4303.5897,4110.2564,4111.7949,4105.641,4080,4117.9487,3752.8205,4214.8718
4304.1026,4131.7949,4131.2821,4300,4281.5385,4111.2821,4111.2821,4105.641,4060.5128,4107.1795,3740.5128,4214.359
4289.7436,4122.0513,4116.9231,4305.1282,4238.4615,4101.0256,4098.4615,4082.5641,4041.0256,4085.641,3745.1282,4193.8462
4306.1538,4123.0769,4123.0769,4292.8205,4312.3077,4104.6154,4117.9487,4118.9744,4083.5897,4116.9231,3800.5128,4221.0256
4303.5897,4130.7692,4127.1795,4293.8462,4343.0769,4114.8718,4128.7179,4133.3333,4073.3333,4118.9744,3800,4224.1026
4272.3077,4123.0769,4115.3846,4307.6923,4305.1282,4123.5897,4114.8718,4106.6667,4034.359,4085.641,3756.4103,4183.5897
4252.3077,4114.8718,4105.1282,4308.2051,4301.0256,4121.0256,4105.1282,4100,4031.7949,4078.4615,3758.4615,4161.5385
4252.8205,4122.5641,4111.2821,4308.2051,4300.5128,4100.5128,4106.6667,4108.7179,4044.6154,4090.7692,3787.6923,4167.1795
4263.5897,4127.6923,4126.1538,4326.1538,4292.3077,4087.1795,4103.5897,4108.7179,4063.5897,4100.5128,3801.0256,4182.0513
4253.8462,4127.1795,4117.9487,4334.359,4281.5385,4087.6923,4096.4103,4105.641,4068.2051,4090.7692,3798.4615,4174.359
4248.2051,4124.6154,4113.8462,4338.4615,4278.4615,4088.7179,4104.1026,4103.5897,4048.7179,4080,3794.359,4158.9744
4277.9487,4128.2051,4127.6923,4344.1026,4290.2564,4100,4113.8462,4102.0513,4053.3333,4093.3333,3817.4359,4176.4103
4296.9231,4134.8718,4124.6154,4355.8974,4242.0513,4088.7179,4083.5897,4081.5385,4078.4615,4094.359,3838.9744,4191.2821
4307.6923,4131.2821,4128.2051,4378.9744,4208.2051,4064.6154,4064.6154,4069.7436,4078.9744,4084.1026,3846.1538,4193.8462
4343.5897,4142.5641,4152.8205,4389.7436,4266.1538,4075.8974,4100.5128,4097.9487,4076.4103,4098.4615,3871.7949,4216.9231
4355.8974,4145.641,4154.359,4380,4286.6667,4095.3846,4114.8718,4111.2821,4091.7949,4106.1538,3895.3846,4226.1538
4321.0256,4128.2051,4134.8718,4360,4235.3846,4089.2308,4088.2051,4090.2564,4094.8718,4090.7692,3884.1026,4198.9744
4298.4615,4130.7692,4131.2821,4341.5385,4228.7179,4082.0513,4085.641,4086.1538,4084.1026,4088.7179,3872.3077,4184.6154
4288.2051,4133.8462,4131.7949,4348.2051,4255.8974,4084.6154,4102.5641,4101.5385,4091.7949,4091.7949,3875.8974,4183.0769
4255.8974,4127.6923,4123.5897,4369.7436,4243.0769,4083.0769,4097.9487,4098.9744,4120,4078.9744,3847.1795,4162.5641
4223.5897,4124.1026,4114.359,4357.9487,4211.7949,4081.0256,4088.7179,4090.7692,4123.5897,4069.2308,3798.4615,4136.9231
4204.1026,4116.9231,4107.1795,4329.7436,4193.8462,4072.8205,4091.7949,4093.3333,4101.5385,4069.7436,3783.0769,4121.0256
4192.8205,4117.4359,4110.7692,4314.8718,4205.1282,4058.9744,4093.8462,4103.0769,4102.0513,4071.2821,3789.2308,4114.8718
4192.3077,4121.0256,4118.9744,4294.8718,4230.7692,4064.6154,4096.4103,4111.2821,4117.9487,4074.8718,3790.2564,4116.9231
4178.9744,4117.4359,4106.1538,4270.2564,4212.3077,4068.2051,4093.3333,4096.9231,4107.1795,4064.1026,3785.1282,4102.5641
4136.9231,4102.0513,4071.2821,4213.3333,4163.5897,4046.6667,4070.2564,4065.1282,4071.2821,4029.2308,3770.7692,4062.0513
4120,4097.4359,4062.0513,4142.0513,4154.359,4032.8205,4051.2821,4057.9487,4051.2821,4012.3077,3767.1795,4045.1282
4147.6923,4121.0256,4091.2821,4123.0769,4195.8974,4051.7949,4072.3077,4081.0256,4085.641,4040,3811.2821,4078.4615
4148.2051,4120.5128,4095.3846,4134.8718,4200,4069.2308,4094.359,4080,4102.5641,4051.2821,3829.7436,4088.2051
4120,4105.1282,4070.7692,4136.4103,4147.1795,4049.2308,4087.6923,4053.8462,4064.1026,4026.1538,3791.7949,4052.3077
4128.2051,4115.8974,4077.4359,4148.2051,4144.6154,4032.3077,4095.3846,4070.7692,4088.7179,4035.8974,3820,4054.8718
4139.4872,4116.4103,4088.7179,4151.2821,4171.2821,4044.6154,4111.7949,4098.9744,4133.8462,4055.3846,3884.1026,4073.8462
4110.7692,4107.6923,4064.6154,4123.0769,4136.9231,4045.1282,4097.9487,4077.4359,4080,4025.1282,3860,4040
4103.0769,4108.7179,4050.2564,4115.3846,4116.9231,4035.3846,4090.2564,4066.6667,4041.0256,4008.2051,3831.2821,4021.0256
4123.5897,4114.359,4060.5128,4135.8974,4151.2821,4045.1282,4108.7179,4090.7692,4093.3333,4033.8462,3866.6667,4047.6923
4115.8974,4112.3077,4062.5641,4108.7179,4151.7949,4052.8205,4108.7179,4096.4103,4110.7692,4040.5128,3880.5128,4050.2564
4097.4359,4104.6154,4054.359,4043.5897,4117.9487,4041.5385,4089.2308,4079.4872,4071.2821,4022.5641,3861.5385,4025.1282
4094.8718,4110.2564,4052.8205,4036.4103,4104.1026,4029.2308,4087.6923,4073.8462,4063.0769,4017.4359,3862.0513,4018.4615
4092.3077,4106.1538,4055.8974,4077.9487,4100,4029.2308,4093.8462,4078.9744,4069.7436,4020.5128,3873.8462,4024.6154
4079.4872,4093.8462,4052.8205,4087.1795,4089.7436,4029.2308,4084.6154,4077.9487,4052.3077,4012.8205,3877.9487,4014.8718
4077.9487,4102.5641,4059.4872,4076.4103,4093.3333,4026.6667,4084.6154,4077.4359,4042.0513,4010.7692,3887.6923,4009.7436
4090.7692,4107.6923,4077.9487,4060,4106.1538,4026.1538,4092.8205,4083.5897,4056.4103,4018.9744,3899.4872,4021.5385
4084.6154,4103.5897,4075.8974,3996.4103,4091.7949,4015.3846,4077.4359,4075.8974,4057.4359,4007.1795,3894.359,4011.7949
4069.2308,4097.4359,4060.5128,3947.1795,4068.2051,4005.1282,4061.0256,4062.0513,4024.1026,3991.2821,3885.641,3989.2308
4078.9744,4098.4615,4066.6667,3975.3846,4073.8462,4014.359,4069.7436,4066.6667,4010.7692,4000.5128,3892.3077,3994.359
4090.7692,4105.641,4075.3846,3997.9487,4090.7692,4024.1026,4077.4359,4075.8974,4038.4615,4014.359,3908.2051,4008.2051
4077.9487,4097.4359,4062.5641,3969.2308,4082.0513,4015.8974,4068.2051,4069.2308,4034.359,4005.641,3914.8718,3998.4615
4063.0769,4094.359,4050.2564,3943.5897,4066.6667,4005.1282,4057.9487,4058.4615,3991.2821,3989.7436,3907.6923,3982.0513
4065.641,4098.9744,4052.3077,3963.0769,4077.4359,4009.7436,4057.9487,4057.9487,3987.1795,3990.7692,3904.6154,3986.1538
4066.1538,4097.4359,4053.3333,4010.7692,4076.9231,4009.2308,4060.5128,4062.0513,4005.641,3996.4103,3916.9231,3992.3077
4052.8205,4097.9487,4044.6154,4044.6154,4049.2308,3994.8718,4054.8718,4063.0769,3999.4872,3992.3077,3919.4872,3981.5385
4043.0769,4092.8205,4032.3077,4025.1282,4039.4872,3989.2308,4041.5385,4058.9744,3992.8205,3987.6923,3906.1538,3971.7949
4058.4615,4102.0513,4043.0769,3972.3077,4065.641,4004.6154,4049.7436,4067.1795,4010.7692,3999.4872,3927.6923,3989.2308
4064.6154,4108.2051,4051.7949,3932.3077,4050.7692,4013.8462,4055.3846,4069.7436,4008.7179,3999.4872,3954.359,3995.3846
4044.6154,4094.8718,4037.4359,3911.7949,4002.5641,4000,4036.9231,4051.7949,3992.3077,3983.0769,3942.0513,3974.359
4046.1538,4096.9231,4044.6154,3930.7692,4010.7692,3994.359,4036.4103,4053.3333,4009.7436,3992.8205,3943.5897,3976.4103
4057.4359,4096.9231,4060,3966.6667,4030.2564,4006.1538,4044.6154,4064.1026,4012.3077,4000,3960.5128,3981.5385
4045.641,4091.2821,4046.6667,3985.641,4016.9231,4017.9487,4041.5385,4054.8718,3985.641,3984.1026,3956.4103,3963.5897
4047.6923,4094.359,4042.5641,4017.4359,4019.4872,4016.9231,4038.4615,4053.3333,3990.7692,3989.2308,3967.1795,3968.7179
4065.641,4098.4615,4058.4615,4050.2564,4030.2564,4002.0513,4035.3846,4063.5897,4020,4010.2564,3994.359,3994.359
4040,4096.4103,4033.8462,4015.3846,3989.2308,4018.4615,4034.359,4061.5385,4010.7692,3996.9231,4040.5128,3974.359
4040.5128,4091.2821,4027.6923,3994.8718,3989.2308,4025.641,4032.8205,4059.4872,4013.3333,3998.9744,4040.5128,3976.4103
4034.8718,4091.7949,4025.641,3978.4615,3970.7692,4020.5128,4033.8462,4062.5641,4007.1795,3992.3077,4040,3970.7692
4029.2308,4089.7436,4029.2308,3970.7692,3963.0769,4023.0769,4034.8718,4061.5385,4013.3333,3992.8205,4043.5897,3968.2051
4031.7949,4088.7179,4033.3333,3956.9231,3982.5641,4034.8718,4030.2564,4056.4103,4022.5641,4001.0256,4043.5897,3974.8718
4042.5641,4095.8974,4036.4103,3933.3333,3995.3846,4026.6667,4031.7949,4060.5128,4021.0256,4008.2051,4051.7949,3981.5385
4052.3077,4092.8205,4044.1026,3930.2564,3988.2051,4015.3846,4045.1282,4069.7436,4035.3846,4017.9487,4081.5385,3988.2051
4047.1795,4093.3333,4045.1282,3945.641,3976.9231,4028.7179,4058.4615,4070.2564,4046.6667,4015.8974,4096.4103,3988.7179
4037.9487,4092.8205,4035.8974,3947.6923,3980,4044.1026,4065.1282,4069.2308,4023.5897,4002.0513,4081.0256,3979.4872
4046.1538,4092.8205,4041.0256,3940,4000,4047.1795,4072.3077,4077.4359,4015.8974,4006.1538,4076.9231,3980.5128
4056.9231,4098.9744,4053.3333,3949.2308,3997.9487,4044.6154,4071.7949,4080.5128,4036.4103,4017.4359,4089.2308,3989.2308
4050.7692,4089.2308,4045.1282,3947.6923,3972.8205,4041.5385,4063.5897,4074.359,4035.3846,4016.4103,4089.2308,3989.2308
4044.6154,4086.6667,4033.8462,3869.7436,3968.7179,4038.9744,4061.5385,4074.359,4025.641,4015.3846,4092.8205,3984.1026
4056.9231,4094.8718,4039.4872,3762.0513,3979.4872,4040,4061.0256,4076.4103,4029.2308,4022.5641,4103.5897,3989.2308
4068.2051,4098.9744,4045.641,3732.8205,3989.7436,4049.7436,4062.0513,4074.8718,4029.7436,4026.1538,4102.0513,4000.5128
4067.1795,4099.4872,4041.5385,3755.8974,3994.8718,4056.9231,4064.6154,4075.8974,4044.6154,4031.7949,4109.2308,4007.1795
4069.2308,4091.7949,4038.9744,3754.359,3981.5385,4049.2308,4058.4615,4075.3846,4061.5385,4036.4103,4130.2564,4011.2821
4071.2821,4094.359,4041.5385,3744.1026,3973.8462,4044.6154,4055.8974,4073.3333,4042.0513,4033.8462,4133.8462,4011.2821
4071.2821,4098.4615,4042.0513,3746.6667,3994.359,4060.5128,4067.1795,4077.4359,4028.7179,4038.4615,4131.7949,4012.3077
4072.8205,4092.8205,4040,3744.6154,4001.0256,4066.6667,4066.1538,4074.359,4046.1538,4044.6154,4135.8974,4014.359
4067.6923,4093.8462,4034.8718,3743.5897,3979.4872,4052.8205,4051.2821,4065.1282,4043.5897,4037.9487,4133.8462,4007.6923
4065.641,4090.7692,4034.359,3748.2051,3988.2051,4057.4359,4057.4359,4069.2308,4022.0513,4032.3077,4144.6154,4004.6154
4070.7692,4090.2564,4040.5128,3750.7692,4000.5128,4074.359,4077.9487,4078.4615,4036.9231,4040.5128,4164.1026,4009.2308
4065.641,4089.7436,4039.4872,3753.3333,3973.3333,4074.8718,4078.4615,4074.359,4046.1538,4045.1282,4156.4103,4005.641
4068.7179,4086.1538,4042.0513,3756.4103,3970.2564,4067.6923,4072.8205,4075.8974,4037.4359,4053.3333,4157.4359,4013.8462
4108.7179,4100.5128,4125.641,4290.7692,4155.3846,4153.8462,4121.5385,4120,4100.5128,4147.6923,4350.7692,4145.641
4114.359,4106.6667,4132.3077,4308.7179,4162.5641,4157.9487,4123.0769,4117.4359,4105.1282,4149.2308,4352.3077,4152.3077
4124.1026,4113.3333,4143.0769,4314.8718,4157.4359,4164.6154,4130.2564,4128.7179,4120,4161.0256,4368.2051,4167.1795
4123.5897,4106.1538,4139.4872,4307.6923,4153.8462,4161.0256,4123.5897,4134.8718,4120.5128,4165.1282,4370.7692,4164.6154
4128.7179,4110.2564,4139.4872,4310.2564,4165.641,4147.6923,4120,4140,4127.1795,4169.2308,4374.359,4165.641
4138.9744,4111.2821,4148.2051,4320.5128,4163.0769,4144.1026,4127.1795,4145.641,4140,4176.9231,4386.6667,4176.9231
4135.3846,4106.6667,4145.641,4317.4359,4150.2564,4151.2821,4126.6667,4137.9487,4137.4359,4172.8205,4384.1026,4171.2821
4127.6923,4113.8462,4137.4359,4309.2308,4167.6923,4158.9744,4120.5128,4129.7436,4133.3333,4168.7179,4380,4165.641
4128.2051,4110.7692,4137.9487,4311.7949,4173.3333,4158.4615,4125.641,4129.2308,4136.4103,4169.2308,4385.1282,4171.2821
4126.6667,4108.7179,4138.9744,4313.8462,4148.2051,4151.7949,4131.2821,4124.6154,4128.7179,4160.5128,4380.5128,4165.641
4125.1282,4108.7179,4135.3846,4310.7692,4149.7436,4151.2821,4125.1282,4115.3846,4122.5641,4152.8205,4375.3846,4160.5128
4128.7179,4104.6154,4133.8462,4310.2564,4167.1795,4154.8718,4121.0256,4110.7692,4128.7179,4155.8974,4376.4103,4167.1795
4126.6667,4106.6667,4134.8718,4309.7436,4161.0256,4156.9231,4120,4108.7179,4128.7179,4157.4359,4369.7436,4166.6667
4129.2308,4107.6923,4137.4359,4309.7436,4156.9231,4154.8718,4121.0256,4115.3846,4129.7436,4162.0513,4369.7436,4167.1795
4141.0256,4113.8462,4143.0769,4314.359,4165.641,4152.3077,4132.3077,4131.7949,4140,4170.7692,4381.5385,4175.3846
4136.9231,4110.2564,4136.9231,4313.3333,4163.5897,4159.4872,4137.4359,4134.8718,4141.0256,4165.1282,4380.5128,4168.7179
4128.2051,4103.5897,4130.2564,4309.2308,4151.2821,4169.2308,4132.3077,4131.7949,4136.9231,4157.9487,4378.4615,4161.5385
4140,4112.3077,4137.9487,4309.7436,4150.7692,4162.0513,4135.8974,4134.359,4144.1026,4168.7179,4391.2821,4176.9231
4147.6923,4109.7436,4142.0513,4312.3077,4170.2564,4156.4103,4140,4128.7179,4143.5897,4170.7692,4393.3333,4182.5641
4134.8718,4107.1795,4135.3846,4314.359,4172.3077,4168.2051,4134.359,4121.0256,4136.9231,4162.0513,4376.9231,4165.1282
4134.8718,4110.2564,4133.8462,4315.8974,4146.1538,4167.1795,4133.3333,4123.5897,4135.3846,4164.1026,4372.8205,4164.6154
4149.7436,4109.7436,4143.5897,4322.0513,4143.0769,4151.7949,4138.4615,4128.2051,4137.9487,4173.3333,4387.6923,4183.0769
4155.8974,4113.3333,4153.3333,4327.6923,4167.1795,4152.8205,4139.4872,4130.2564,4145.1282,4175.8974,4390.2564,4188.2051
4155.8974,4110.2564,4156.9231,4328.2051,4174.359,4167.6923,4141.0256,4130.2564,4151.7949,4172.8205,4381.5385,4184.6154
4155.3846,4110.7692,4152.3077,4331.2821,4166.6667,4171.7949,4140,4126.6667,4150.7692,4173.8462,4383.0769,4184.6154
4155.3846,4112.8205,4142.5641,4329.2308,4161.0256,4165.641,4132.3077,4125.1282,4150.2564,4174.8718,4389.7436,4185.641
4156.4103,4107.1795,4138.4615,4317.9487,4154.359,4156.9231,4122.5641,4124.6154,4154.359,4172.3077,4391.7949,4188.7179
4154.8718,4110.7692,4141.5385,4317.4359,4154.8718,4155.8974,4122.0513,4124.1026,4151.7949,4170.7692,4389.7436,4186.1538
4148.7179,4107.1795,4136.4103,4322.5641,4165.1282,4167.1795,4130.2564,4127.1795,4144.6154,4169.2308,4385.1282,4179.4872
4135.8974,4103.5897,4120,4307.6923,4152.3077,4166.6667,4128.7179,4128.2051,4141.0256,4156.9231,4375.3846,4175.8974
4131.2821,4106.6667,4120.5128,4300.5128,4133.3333,4155.3846,4128.7179,4127.1795,4137.4359,4150.7692,4373.3333,4176.9231
4144.1026,4103.0769,4135.3846,4317.4359,4148.7179,4155.3846,4134.359,4126.1538,4135.8974,4164.1026,4379.4872,4182.0513
4149.2308,4109.7436,4138.4615,4318.9744,4164.1026,4152.8205,4130.7692,4121.0256,4138.9744,4169.2308,4374.8718,4181.0256
4141.5385,4112.3077,4134.359,4309.2308,4161.5385,4150.2564,4126.1538,4116.4103,4136.4103,4156.4103,4370.7692,4173.3333
4141.0256,4111.7949,4137.4359,4319.4872,4162.5641,4160.5128,4129.7436,4119.4872,4127.1795,4150.2564,4371.7949,4171.7949
4151.2821,4116.4103,4146.6667,4330.7692,4164.6154,4161.0256,4134.8718,4130.2564,4132.3077,4163.0769,4376.9231,4182.0513
4159.4872,4111.2821,4157.9487,4329.7436,4156.4103,4142.5641,4131.7949,4138.9744,4146.1538,4176.4103,4389.2308,4189.7436
4155.8974,4111.7949,4158.9744,4324.6154,4157.9487,4133.8462,4127.6923,4141.5385,4147.6923,4177.4359,4394.8718,4186.6667
4146.6667,4113.8462,4143.0769,4320,4171.7949,4144.1026,4131.2821,4135.8974,4136.4103,4166.6667,4385.641,4177.9487
4145.1282,4111.2821,4137.4359,4317.4359,4170.7692,4153.3333,4135.8974,4130.7692,4127.6923,4156.9231,4381.5385,4171.2821
4150.2564,4111.2821,4148.2051,4317.4359,4165.1282,4152.3077,4132.3077,4137.4359,4130.2564,4158.9744,4390.2564,4171.7949
4146.1538,4107.1795,4147.1795,4313.3333,4157.4359,4142.0513,4121.0256,4138.9744,4131.2821,4158.4615,4382.5641,4165.641
4129.7436,4109.7436,4133.3333,4308.2051,4145.1282,4130.7692,4116.9231,4128.7179,4119.4872,4145.641,4362.5641,4149.2308
4120,4105.1282,4127.1795,4307.1795,4141.5385,4140.5128,4115.8974,4121.0256,4107.6923,4133.8462,4358.9744,4138.9744
4122.5641,4102.5641,4132.3077,4307.6923,4144.1026,4151.7949,4116.4103,4120,4109.2308,4138.4615,4361.5385,4145.1282
4137.4359,4113.8462,4146.1538,4312.3077,4150.2564,4137.9487,4116.9231,4121.5385,4123.0769,4156.4103,4363.5897,4162.5641
4156.4103,4111.2821,4161.0256,4321.0256,4154.8718,4116.9231,4110.2564,4125.641,4137.4359,4173.8462,4373.8462,4178.4615
4153.3333,4108.2051,4159.4872,4320.5128,4148.7179,4117.4359,4106.1538,4124.6154,4138.9744,4172.3077,4377.4359,4172.8205
4136.9231,4106.6667,4140.5128,4306.6667,4138.4615,4129.2308,4105.1282,4116.9231,4126.1538,4155.3846,4367.1795,4157.4359
4138.4615,4106.6667,4133.3333,4301.5385,4141.0256,4126.6667,4103.0769,4115.3846,4121.5385,4149.7436,4362.0513,4159.4872
4151.7949,4117.9487,4147.6923,4314.359,4155.8974,4121.0256,4107.6923,4125.641,4129.2308,4158.9744,4366.1538,4170.7692
4147.6923,4112.3077,4152.3077,4318.4615,4154.359,4131.7949,4110.2564,4127.1795,4127.1795,4156.9231,4365.641,4166.6667
4132.8205,4104.6154,4137.9487,4306.1538,4139.4872,4141.0256,4102.0513,4109.7436,4109.2308,4140.5128,4353.8462,4154.359
4133.8462,4108.7179,4132.8205,4305.1282,4142.0513,4130.7692,4102.5641,4106.6667,4104.6154,4136.4103,4344.1026,4154.359
4141.5385,4108.7179,4139.4872,4312.8205,4160.5128,4126.1538,4115.3846,4127.6923,4117.9487,4150.7692,4349.2308,4161.0256
4142.5641,4112.8205,4140.5128,4313.8462,4164.6154,4139.4872,4120,4133.8462,4127.6923,4163.0769,4362.0513,4166.1538
4148.7179,4110.2564,4140,4313.8462,4157.4359,4141.5385,4115.3846,4123.0769,4133.3333,4165.1282,4377.4359,4180.5128
4152.3077,4108.7179,4143.5897,4315.8974,4154.8718,4136.4103,4117.9487,4126.6667,4137.4359,4161.0256,4382.0513,4185.641
4136.9231,4110.2564,4136.9231,4311.2821,4151.7949,4141.0256,4123.0769,4131.2821,4131.7949,4153.8462,4370.7692,4168.7179
4126.1538,4108.2051,4125.641,4305.641,4148.7179,4141.0256,4115.3846,4120.5128,4123.0769,4149.2308,4360,4157.4359
4134.8718,4113.3333,4130.2564,4308.7179,4148.7179,4131.2821,4111.2821,4116.9231,4126.6667,4150.7692,4362.5641,4164.6154
4143.5897,4110.7692,4140,4316.9231,4153.3333,4131.7949,4120,4128.7179,4134.359,4152.8205,4371.2821,4171.2821
4141.0256,4110.7692,4139.4872,4315.3846,4157.4359,4146.1538,4129.7436,4136.9231,4136.4103,4155.3846,4371.2821,4169.2308
4135.8974,4114.359,4135.8974,4309.7436,4154.8718,4151.2821,4134.359,4135.8974,4132.8205,4152.8205,4364.6154,4165.641
4139.4872,4108.7179,4137.9487,4310.7692,4152.8205,4146.1538,4134.8718,4137.9487,4137.4359,4152.8205,4369.2308,4169.2308
4149.7436,4115.3846,4143.5897,4314.8718,4156.9231,4145.641,4130.2564,4146.1538,4156.4103,4160.5128,4383.5897,4182.0513
4148.7179,4114.359,4141.0256,4309.2308,4155.8974,4153.3333,4123.0769,4145.1282,4158.9744,4160.5128,4383.0769,4181.5385
4134.359,4107.6923,4133.8462,4304.6154,4148.2051,4157.9487,4123.5897,4135.3846,4141.5385,4153.8462,4366.6667,4165.641
4135.3846,4114.8718,4137.4359,4309.7436,4151.2821,4148.7179,4125.641,4142.5641,4144.1026,4156.9231,4362.0513,4166.6667
4147.6923,4115.3846,4142.0513,4312.3077,4156.9231,4138.9744,4121.0256,4154.8718,4157.9487,4162.0513,4373.3333,4183.0769
4149.7436,4113.8462,4135.8974,4305.641,4150.7692,4136.9231,4119.4872,4148.2051,4159.4872,4158.4615,4379.4872,4184.6154
4152.3077,4112.3077,4141.5385,4306.1538,4151.2821,4147.6923,4126.6667,4145.1282,4158.4615,4164.1026,4378.4615,4182.5641
4158.4615,4115.3846,4153.8462,4318.9744,4168.7179,4161.0256,4132.8205,4149.7436,4158.9744,4175.3846,4378.9744,4193.3333
4153.8462,4118.4615,4145.641,4318.9744,4168.7179,4161.5385,4132.8205,4137.4359,4153.3333,4166.1538,4372.3077,4192.8205
4149.2308,4109.2308,4132.3077,4310.2564,4154.8718,4153.3333,4128.7179,4121.5385,4150.2564,4151.2821,4361.5385,4177.9487
4152.3077,4112.3077,4142.0513,4312.8205,4159.4872,4152.3077,4126.1538,4121.0256,4145.641,4151.2821,4360.5128,4176.4103
4156.4103,4114.8718,4153.8462,4318.9744,4168.7179,4157.4359,4128.2051,4124.1026,4139.4872,4157.9487,4363.5897,4188.2051
4161.0256,4112.8205,4155.8974,4323.0769,4164.6154,4154.8718,4132.8205,4127.6923,4146.1538,4163.5897,4362.0513,4189.7436
4164.6154,4115.8974,4157.4359,4325.1282,4157.9487,4149.7436,4136.9231,4130.2564,4153.3333,4168.7179,4357.9487,4184.1026
4164.6154,4111.7949,4158.9744,4323.5897,4162.5641,4152.8205,4133.8462,4127.6923,4148.7179,4172.3077,4360,4188.2051
4156.9231,4112.8205,4154.359,4316.9231,4162.5641,4154.8718,4131.7949,4126.1538,4142.0513,4168.2051,4351.7949,4184.6154
4143.0769,4107.6923,4144.1026,4305.641,4157.9487,4152.8205,4133.3333,4118.9744,4138.4615,4155.8974,4334.8718,4166.6667
4134.359,4100.5128,4137.9487,4297.9487,4162.5641,4159.4872,4132.3077,4108.7179,4132.8205,4141.5385,4327.6923,4158.4615
4136.9231,4110.7692,4137.4359,4303.0769,4164.6154,4172.3077,4132.3077,4108.7179,4129.2308,4136.9231,4333.8462,4162.5641
4145.641,4114.359,4140.5128,4314.8718,4164.6154,4166.6667,4133.3333,4114.359,4133.8462,4147.6923,4341.5385,4166.1538
4145.641,4112.3077,4140.5128,4310.7692,4164.1026,4151.2821,4130.2564,4114.8718,4136.9231,4150.7692,4336.9231,4165.641
4144.6154,4112.8205,4137.4359,4299.4872,4160.5128,4151.2821,4123.5897,4117.4359,4136.9231,4145.641,4334.359,4168.7179
4149.2308,4110.7692,4140,4302.5641,4160.5128,4157.4359,4123.0769,4119.4872,4144.6154,4148.2051,4343.0769,4179.4872
4155.3846,4113.8462,4145.1282,4312.3077,4166.6667,4154.8718,4130.7692,4126.1538,4155.8974,4157.4359,4350.2564,4184.6154
4158.9744,4109.7436,4144.6154,4310.7692,4165.1282,4158.4615,4134.8718,4135.8974,4158.4615,4162.5641,4349.7436,4177.4359
4151.2821,4106.6667,4139.4872,4298.4615,4153.8462,4161.0256,4131.7949,4134.8718,4153.3333,4160.5128,4340,4170.7692
4137.4359,4107.6923,4133.3333,4289.2308,4151.7949,4155.8974,4124.6154,4126.1538,4150.7692,4156.4103,4329.7436,4170.7692
4138.4615,4106.6667,4127.6923,4291.7949,4157.9487,4162.5641,4122.5641,4123.0769,4153.8462,4154.8718,4333.8462,4170.7692
4146.6667,4116.9231,4126.6667,4294.8718,4167.1795,4169.2308,4122.5641,4124.6154,4153.8462,4157.4359,4340,4167.6923
4137.9487,4113.3333,4123.5897,4285.641,4166.1538,4163.5897,4122.0513,4118.9744,4141.5385,4148.2051,4324.1026,4160
4126.1538,4104.1026,4118.4615,4277.9487,4150.7692,4158.9744,4125.641,4114.359,4131.7949,4137.4359,4309.7436,4149.2308
4134.359,4110.7692,4120,4283.5897,4147.6923,4155.3846,4124.1026,4118.9744,4142.0513,4145.641,4322.0513,4151.7949
4141.5385,4110.7692,4121.5385,4286.6667,4156.9231,4150.7692,4121.5385,4128.2051,4152.3077,4155.8974,4333.3333,4164.1026
4135.8974,4112.8205,4125.1282,4287.6923,4157.9487,4155.3846,4131.2821,4138.4615,4153.8462,4156.4103,4329.2308,4168.2051
4137.4359,4110.7692,4131.7949,4291.7949,4156.4103,4164.6154,4140.5128,4144.1026,4161.5385,4160.5128,4331.2821,4166.6667
4147.6923,4108.2051,4134.359,4293.3333,4156.9231,4163.0769,4141.5385,4143.0769,4171.7949,4166.1538,4338.4615,4171.2821
4146.6667,4111.2821,4127.1795,4291.2821,4149.7436,4156.4103,4140.5128,4137.9487,4171.2821,4160.5128,4340,4173.3333
4144.6154,4108.2051,4126.1538,4294.359,4144.1026,4156.9231,4137.4359,4136.4103,4166.1538,4158.9744,4340,4171.7949
4152.3077,4113.8462,4136.9231,4298.4615,4146.1538,4157.9487,4136.9231,4138.4615,4168.7179,4169.7436,4337.9487,4180.5128
4157.4359,4115.3846,4141.5385,4293.3333,4154.359,4151.7949,4139.4872,4136.9231,4166.6667,4168.7179,4334.359,4186.1538
4157.4359,4115.3846,4141.5385,4293.3333,4154.359,4151.7949,4139.4872,4136.9231,4166.6667,4168.7179,4334.359,4186.1538
4152.8205,4114.8718,4137.4359,4287.1795,4156.9231,4148.7179,4135.8974,4130.7692,4155.8974,4156.4103,4325.641,4175.3846
4150.7692,4118.4615,4142.0513,4289.7436,4152.3077,4147.6923,4129.7436,4124.1026,4152.3077,4156.9231,4318.9744,4170.2564
4162.0513,4116.9231,4152.3077,4296.4103,4155.8974,4147.6923,4126.1538,4120.5128,4162.5641,4167.6923,4328.7179,4182.0513
4175.3846,4125.1282,4156.9231,4300.5128,4168.7179,4154.359,4128.7179,4127.6923,4171.2821,4169.7436,4346.1538,4190.7692
4176.4103,4123.5897,4156.4103,4298.4615,4173.8462,4155.8974,4136.4103,4138.9744,4166.6667,4167.1795,4350.7692,4190.2564
4172.3077,4114.8718,4156.9231,4297.4359,4169.7436,4149.7436,4137.4359,4140.5128,4158.9744,4166.1538,4342.5641,4185.1282
4168.7179,4117.4359,4156.9231,4293.8462,4163.0769,4144.6154,4130.7692,4138.9744,4155.8974,4161.0256,4338.9744,4178.4615
4161.5385,4112.3077,4152.3077,4284.1026,4156.4103,4141.0256,4130.2564,4137.9487,4153.8462,4155.3846,4340,4172.3077
4160,4113.3333,4151.7949,4283.0769,4160,4140.5128,4136.9231,4140.5128,4153.3333,4160,4338.4615,4169.7436
4168.2051,4117.4359,4162.0513,4293.3333,4172.8205,4145.1282,4140,4147.6923,4156.4103,4169.7436,4336.4103,4171.7949
4163.5897,4111.2821,4162.5641,4292.3077,4173.3333,4140,4131.7949,4141.5385,4148.7179,4164.6154,4327.1795,4167.6923
4153.8462,4114.359,4152.3077,4287.1795,4165.1282,4137.4359,4123.0769,4127.1795,4137.9487,4153.8462,4322.5641,4163.0769
4159.4872,4117.9487,4151.2821,4293.3333,4158.9744,4144.6154,4122.0513,4126.1538,4137.4359,4153.8462,4331.2821,4170.2564
4166.6667,4121.5385,4162.0513,4295.3846,4157.4359,4141.5385,4127.6923,4131.2821,4140.5128,4157.4359,4332.3077,4172.3077
4169.7436,4121.0256,4168.2051,4293.8462,4168.2051,4135.3846,4130.7692,4135.8974,4146.1538,4161.5385,4329.7436,4169.2308
4172.8205,4115.8974,4167.6923,4298.4615,4175.8974,4141.0256,4130.2564,4148.2051,4156.4103,4169.2308,4342.5641,4179.4872
4167.1795,4119.4872,4161.0256,4295.3846,4165.641,4141.5385,4132.8205,4155.3846,4158.9744,4167.6923,4349.2308,4182.5641
4164.1026,4114.8718,4153.3333,4289.7436,4162.0513,4139.4872,4131.2821,4151.2821,4150.2564,4157.9487,4341.0256,4171.2821
4170.2564,4112.8205,4153.8462,4296.4103,4167.6923,4143.0769,4126.6667,4150.7692,4148.2051,4155.3846,4339.4872,4172.3077
4167.1795,4116.9231,4154.8718,4295.3846,4164.6154,4150.7692,4129.7436,4153.3333,4154.359,4158.9744,4340.5128,4178.4615
4160.5128,4111.2821,4150.2564,4283.5897,4154.359,4155.8974,4131.2821,4151.7949,4149.7436,4158.4615,4334.359,4172.3077
4161.5385,4113.8462,4148.2051,4283.5897,4149.7436,4149.2308,4130.7692,4149.7436,4138.9744,4154.359,4328.2051,4163.5897
4166.6667,4116.9231,4156.9231,4294.8718,4160,4147.6923,4135.8974,4153.3333,4144.1026,4156.4103,4330.7692,4169.2308
4175.8974,4121.0256,4172.8205,4305.1282,4170.2564,4152.8205,4135.3846,4152.8205,4158.4615,4169.7436,4341.0256,4188.2051
4186.6667,4125.641,4183.0769,4309.7436,4161.0256,4144.1026,4128.2051,4141.0256,4159.4872,4178.4615,4348.7179,4199.4872
4189.2308,4117.9487,4181.5385,4309.7436,4153.3333,4144.6154,4132.8205,4141.5385,4156.4103,4176.9231,4346.6667,4193.8462
4178.9744,4117.4359,4174.359,4303.0769,4156.4103,4154.359,4139.4872,4151.7949,4158.4615,4173.3333,4335.8974,4183.0769
4169.2308,4114.8718,4164.6154,4296.4103,4151.2821,4147.6923,4129.2308,4146.6667,4151.7949,4166.1538,4329.7436,4178.4615
4166.1538,4110.7692,4155.8974,4292.8205,4145.1282,4144.6154,4124.6154,4135.8974,4140,4154.8718,4325.1282,4173.3333
4161.0256,4114.8718,4151.2821,4287.6923,4155.3846,4154.359,4135.3846,4138.4615,4135.3846,4149.2308,4316.4103,4165.1282
4154.8718,4111.7949,4151.2821,4282.0513,4155.8974,4147.1795,4137.4359,4140.5128,4132.8205,4150.2564,4312.8205,4164.1026
4151.7949,4114.8718,4149.7436,4276.4103,4145.1282,4136.9231,4129.2308,4136.4103,4130.7692,4149.7436,4311.7949,4164.1026
4156.9231,4115.8974,4148.2051,4281.0256,4150.7692,4146.6667,4130.7692,4143.0769,4141.0256,4150.7692,4315.3846,4166.1538
4169.2308,4113.8462,4159.4872,4293.3333,4158.9744,4152.3077,4140,4151.2821,4149.7436,4160,4325.641,4175.3846
4177.4359,4116.4103,4170.7692,4295.3846,4153.3333,4146.6667,4138.9744,4144.1026,4144.1026,4168.2051,4327.1795,4183.0769
4173.3333,4114.359,4164.1026,4290.7692,4152.3077,4151.2821,4132.8205,4134.359,4144.6154,4168.2051,4317.4359,4184.1026
4168.2051,4120,4160,4292.3077,4158.4615,4159.4872,4137.9487,4136.4103,4152.8205,4168.7179,4316.4103,4178.9744
4169.2308,4116.9231,4163.5897,4288.2051,4151.7949,4151.7949,4140,4140,4146.6667,4171.2821,4316.4103,4174.359
4169.2308,4109.7436,4161.5385,4280.5128,4143.5897,4140.5128,4132.8205,4135.8974,4140,4167.6923,4310.2564,4174.359
4168.7179,4117.4359,4162.5641,4287.6923,4144.6154,4146.1538,4133.3333,4136.4103,4152.8205,4166.6667,4314.8718,4181.5385
4171.2821,4116.9231,4167.6923,4289.7436,4144.1026,4153.8462,4137.9487,4138.9744,4154.8718,4170.2564,4321.0256,4185.641
4174.8718,4116.4103,4164.6154,4283.0769,4145.641,4146.6667,4133.8462,4137.9487,4142.5641,4169.7436,4311.7949,4181.0256
4178.4615,4116.9231,4165.641,4287.6923,4154.8718,4145.1282,4133.3333,4138.4615,4147.1795,4171.2821,4310.7692,4183.5897
4181.5385,4114.359,4172.8205,4295.8974,4164.1026,4152.3077,4136.9231,4140,4156.4103,4175.3846,4322.0513,4189.7436
4181.0256,4118.9744,4169.7436,4293.8462,4163.0769,4159.4872,4131.2821,4137.4359,4146.6667,4171.7949,4320.5128,4187.6923
4184.6154,4116.9231,4166.6667,4292.8205,4161.5385,4163.5897,4126.6667,4133.3333,4137.4359,4168.7179,4312.8205,4185.641
4192.3077,4118.4615,4171.7949,4295.8974,4166.6667,4159.4872,4130.7692,4133.3333,4146.6667,4180,4313.8462,4193.3333
4193.8462,4119.4872,4174.359,4298.9744,4170.7692,4153.8462,4134.359,4137.9487,4154.8718,4188.2051,4320,4202.0513
4190.2564,4112.3077,4170.7692,4297.9487,4164.6154,4153.3333,4131.7949,4138.9744,4149.7436,4180,4321.5385,4197.4359
4177.4359,4112.8205,4157.4359,4281.5385,4143.5897,4153.8462,4127.6923,4130.7692,4146.6667,4165.1282,4309.7436,4178.4615
4169.7436,4112.3077,4149.2308,4273.8462,4138.9744,4150.7692,4130.2564,4129.7436,4152.3077,4164.6154,4300.5128,4174.359
4178.4615,4116.9231,4160.5128,4289.2308,4160,4149.7436,4138.4615,4145.641,4155.3846,4173.3333,4310.7692,4192.8205
4182.5641,4119.4872,4167.6923,4292.8205,4170.2564,4157.4359,4139.4872,4150.2564,4153.3333,4173.8462,4314.8718,4192.8205
4170.7692,4111.2821,4156.9231,4280,4154.359,4158.9744,4133.8462,4139.4872,4153.8462,4169.2308,4301.0256,4173.8462
4163.5897,4116.9231,4152.3077,4281.5385,4149.2308,4148.7179,4134.359,4137.9487,4154.359,4164.6154,4295.8974,4170.7692
4174.359,4120.5128,4161.5385,4291.7949,4166.1538,4156.4103,4135.8974,4141.0256,4157.4359,4166.6667,4309.7436,4182.5641
4182.0513,4121.0256,4168.7179,4291.2821,4173.3333,4172.8205,4137.4359,4135.3846,4168.2051,4180.5128,4320,4190.7692
4180.5128,4123.5897,4169.7436,4287.1795,4165.1282,4162.0513,4136.9231,4141.5385,4175.8974,4189.2308,4320,4194.359
4180,4116.9231,4168.2051,4287.1795,4156.9231,4149.7436,4135.3846,4152.3077,4171.2821,4186.6667,4317.4359,4193.8462
4175.3846,4117.4359,4164.1026,4283.5897,4154.359,4158.4615,4136.9231,4146.1538,4158.9744,4178.9744,4306.6667,4182.5641
4154.359,4113.3333,4149.7436,4271.2821,4149.7436,4160,4137.9487,4134.8718,4149.7436,4169.2308,4287.6923,4165.641
4135.8974,4106.1538,4134.8718,4259.4872,4133.8462,4157.4359,4137.9487,4129.2308,4148.2051,4160.5128,4270.7692,4149.2308
4143.5897,4113.8462,4142.5641,4264.1026,4135.3846,4167.1795,4140.5128,4127.6923,4148.7179,4165.641,4271.2821,4151.7949
4157.9487,4115.3846,4156.4103,4274.8718,4155.3846,4168.2051,4141.5385,4134.8718,4151.2821,4173.8462,4283.5897,4168.2051
4150.7692,4113.8462,4149.7436,4272.3077,4155.3846,4151.2821,4140.5128,4142.0513,4159.4872,4169.2308,4285.1282,4166.1538
4147.1795,4113.8462,4142.5641,4271.7949,4143.0769,4149.2308,4138.9744,4136.9231,4166.6667,4164.6154,4284.6154,4158.4615
4166.1538,4120.5128,4157.4359,4280.5128,4149.2308,4165.641,4141.0256,4135.3846,4175.3846,4176.9231,4296.9231,4175.8974
4179.4872,4126.1538,4171.2821,4282.5641,4160.5128,4167.1795,4151.2821,4151.2821,4190.2564,4194.359,4310.2564,4195.3846
4178.9744,4118.9744,4168.2051,4281.5385,4163.5897,4159.4872,4151.7949,4156.9231,4195.3846,4194.8718,4314.359,4194.8718
4176.9231,4124.1026,4161.0256,4283.0769,4167.1795,4166.1538,4142.0513,4144.1026,4186.1538,4183.5897,4309.7436,4190.2564
4173.3333,4126.1538,4155.3846,4281.0256,4159.4872,4171.2821,4137.4359,4134.8718,4175.3846,4176.4103,4298.4615,4187.6923
4166.6667,4114.8718,4153.3333,4277.9487,4147.1795,4158.4615,4137.4359,4136.9231,4171.7949,4172.8205,4286.1538,4180
4162.5641,4114.359,4153.3333,4278.4615,4145.1282,4151.2821,4142.0513,4136.9231,4170.2564,4169.7436,4281.5385,4174.8718
4159.4872,4111.7949,4154.359,4272.8205,4148.7179,4156.4103,4146.1538,4133.8462,4168.2051,4171.7949,4283.5897,4175.3846
4151.2821,4112.3077,4147.6923,4262.0513,4143.5897,4154.359,4145.1282,4137.9487,4167.6923,4169.2308,4275.8974,4165.641
4146.6667,4113.8462,4140.5128,4257.4359,4136.4103,4153.8462,4145.641,4143.5897,4167.1795,4160.5128,4262.5641,4152.8205
4154.359,4114.359,4146.6667,4260.5128,4142.5641,4153.8462,4147.1795,4140.5128,4165.1282,4161.5385,4266.6667,4159.4872
4172.3077,4128.7179,4164.6154,4268.7179,4154.8718,4151.7949,4149.2308,4138.9744,4173.8462,4175.8974,4286.6667,4178.9744
4190.7692,4129.2308,4179.4872,4277.9487,4164.1026,4163.0769,4154.8718,4151.2821,4188.2051,4189.2308,4303.5897,4195.8974
4190.7692,4123.5897,4178.4615,4280,4160,4166.6667,4153.8462,4154.8718,4184.1026,4183.0769,4299.4872,4197.4359
4176.9231,4120.5128,4164.1026,4275.8974,4155.8974,4147.6923,4143.0769,4142.5641,4170.2564,4167.6923,4286.1538,4183.0769
4169.7436,4117.9487,4155.8974,4271.7949,4155.3846,4135.3846,4135.8974,4143.0769,4167.6923,4163.5897,4287.1795,4170.7692
4172.8205,4123.0769,4165.641,4267.1795,4147.1795,4137.9487,4140.5128,4153.8462,4172.3077,4169.7436,4297.4359,4172.8205
4174.359,4118.4615,4168.7179,4263.5897,4149.7436,4144.6154,4145.1282,4156.4103,4174.8718,4170.2564,4302.0513,4175.8974
4167.1795,4117.4359,4160,4261.5385,4153.8462,4150.2564,4145.1282,4152.3077,4173.3333,4160,4297.9487,4168.7179
4164.1026,4121.0256,4160.5128,4261.5385,4144.6154,4146.1538,4146.1538,4153.8462,4168.7179,4151.7949,4292.3077,4164.6154
4174.359,4115.8974,4169.2308,4263.5897,4144.6154,4143.5897,4153.8462,4164.6154,4168.2051,4158.4615,4294.8718,4169.7436
4177.9487,4118.4615,4172.8205,4264.1026,4157.9487,4149.7436,4155.8974,4166.6667,4172.3077,4170.7692,4301.5385,4176.4103
4173.3333,4117.9487,4173.3333,4261.5385,4154.359,4151.7949,4149.7436,4155.8974,4171.2821,4170.2564,4295.3846,4177.9487
4175.3846,4118.9744,4175.8974,4265.641,4148.7179,4153.3333,4153.3333,4154.359,4164.6154,4167.6923,4282.0513,4175.3846
4170.7692,4118.9744,4170.7692,4263.0769,4150.7692,4153.3333,4151.2821,4156.9231,4161.0256,4167.1795,4274.8718,4169.2308
4162.0513,4108.2051,4160,4254.8718,4138.4615,4142.5641,4137.9487,4145.641,4164.1026,4163.0769,4271.2821,4168.2051
4154.359,4111.7949,4153.8462,4246.1538,4119.4872,4143.5897,4142.5641,4141.5385,4161.0256,4154.359,4266.6667,4161.5385
4151.7949,4110.7692,4157.9487,4235.8974,4115.8974,4156.4103,4155.8974,4154.359,4169.7436,4156.4103,4275.3846,4160
4180.5128,4106.1538,4173.8462,4249.2308,4135.3846,4154.359,4150.2564,4157.9487,4193.3333,4180,4297.9487,4199.4872
4176.4103,4104.6154,4172.8205,4232.8205,4133.8462,4141.5385,4138.4615,4143.0769,4168.7179,4177.4359,4285.641,4207.1795
4141.5385,4098.9744,4153.3333,4166.1538,4101.5385,4131.2821,4129.7436,4130.2564,4130.7692,4143.0769,4262.5641,4174.8718
4165.1282,4108.2051,4153.8462,4182.5641,4092.3077,4127.1795,4118.9744,4127.1795,4152.3077,4137.9487,4281.0256,4189.7436
4194.8718,4109.2308,4181.5385,4285.641,4081.5385,4123.5897,4113.3333,4121.5385,4169.7436,4154.359,4302.5641,4229.2308
4234.8718,4127.1795,4210.2564,4303.0769,4046.1538,4115.3846,4111.2821,4113.3333,4158.9744,4166.1538,4325.1282,4292.3077
4304.1026,4159.4872,4203.0769,4231.7949,4032.3077,4107.6923,4098.9744,4107.6923,4175.3846,4170.7692,4371.2821,4363.0769
4247.1795,4126.1538,4169.2308,4174.8718,3954.8718,4087.1795,4069.7436,4087.6923,4167.6923,4137.9487,4380,4336.9231
4150.7692,4115.8974,4181.0256,4152.8205,3822.5641,4060,4063.0769,4067.6923,4145.1282,4104.6154,4380.5128,4312.8205
4258.4615,4190.2564,4223.5897,4198.9744,3851.7949,4075.8974,4066.1538,4083.5897,4183.5897,4129.2308,4465.641,4440.5128
4251.7949,4172.8205,4169.7436,4175.3846,3884.6154,4057.9487,4028.7179,4058.4615,4162.5641,4090.2564,4490.7692,4471.2821
4052.8205,4111.7949,4047.6923,4013.3333,3738.4615,3970.7692,4052.8205,3975.8974,4080.5128,3984.1026,4422.0513,4366.1538
4126.6667,4176.9231,3998.9744,3966.1538,3657.9487,3939.4872,4177.4359,3956.9231,4077.4359,3975.8974,4436.9231,4408.7179
4220.5128,4217.9487,3997.4359,3960,3633.8462,3931.2821,4215.3846,3961.0256,4074.359,3974.8718,4441.5385,4422.5641
4132.8205,4206.6667,3974.359,3822.0513,3520.5128,3882.0513,4148.2051,3917.4359,4038.4615,3908.2051,4376.9231,4332.8205
4235.8974,4287.1795,4011.2821,3815.3846,3538.4615,3925.641,4183.5897,3947.6923,4102.5641,3950.7692,4430.2564,4427.6923
4357.9487,4334.8718,4124.1026,3924.6154,3654.8718,4028.2051,4280,4050.2564,4177.9487,4057.4359,4541.5385,4566.6667
4277.4359,4313.8462,4176.4103,3814.359,3596.4103,4019.4872,4260,4045.641,4155.3846,4033.3333,4545.641,4529.2308
4325.1282,4397.4359,4213.3333,3823.0769,3540,3991.7949,4226.6667,3998.9744,4178.9744,3998.4615,4548.2051,4562.0513
4460.5128,4454.8718,4342.5641,4173.8462,3645.641,4045.1282,4272.8205,4048.7179,4228.7179,4075.3846,4624.6154,4740
4351.2821,4363.5897,4421.0256,4351.7949,3668.7179,4030.2564,4238.4615,4041.0256,4147.1795,4077.9487,4632.3077,4764.6154
4191.7949,4310.7692,4335.8974,4379.4872,3501.5385,3880.5128,4064.1026,3876.9231,4032.8205,3926.6667,4517.9487,4627.6923
4115.8974,4289.7436,4226.1538,4577.9487,3341.5385,3733.8462,3927.6923,3727.6923,4005.641,3775.8974,4397.4359,4488.7179
4016.9231,4277.9487,4240,4654.8718,3317.9487,3711.2821,3921.5385,3704.1026,4017.4359,3731.7949,4352.3077,4388.7179
4057.4359,4365.1282,4333.8462,4587.1795,3423.5897,3781.0256,3965.641,3741.5385,4055.8974,3788.7179,4382.5641,4416.9231
4121.0256,4383.0769,4375.3846,4754.8718,3516.9231,3779.4872,3966.1538,3740.5128,4090.2564,3820,4374.359,4457.4359
3965.1282,4293.3333,4340.5128,4955.8974,3474.359,3666.1538,3899.4872,3670.2564,4044.1026,3721.5385,4269.2308,4337.4359
3867.1795,4289.7436,4346.6667,5058.4615,3461.5385,3590.7692,3840,3614.359,3993.3333,3632.3077,4181.0256,4242.5641
3968.7179,4350.7692,4411.7949,5431.7949,3632.3077,3589.7436,3828.2051,3614.359,3971.7949,3642.0513,4138.9744,4258.4615
3944.1026,4297.4359,4436.9231,5835.8974,3823.5897,3571.2821,3803.5897,3587.1795,3894.8718,3598.4615,4047.6923,4179.4872
3795.8974,4213.8462,4456.4103,5767.6923,3801.0256,3514.359,3743.5897,3525.641,3802.5641,3505.641,3931.2821,4068.2051
3767.6923,4257.4359,4540.5128,5483.5897,3665.1282,3464.6154,3710.7692,3504.1026,3763.5897,3502.5641,3871.2821,4064.6154
3785.1282,4289.7436,4618.9744,5409.7436,3678.9744,3458.9744,3716.9231,3504.1026,3737.4359,3530.2564,3837.9487,4034.359
3818.9744,4273.3333,4635.3846,5463.0769,3869.7436,3476.9231,3720,3493.3333,3713.3333,3517.9487,3815.8974,4001.0256
3849.7436,4267.1795,4626.1538,5388.2051,4005.1282,3451.2821,3695.8974,3476.9231,3703.5897,3504.6154,3795.8974,4015.3846
3726.6667,4220,4632.3077,5171.7949,3868.2051,3392.3077,3654.8718,3441.5385,3656.9231,3471.2821,3730.7692,3941.5385
3666.1538,4218.4615,4659.4872,4995.3846,3728.2051,3395.8974,3652.8205,3432.3077,3611.7949,3445.1282,3696.9231,3880
3771.2821,4269.2308,4692.3077,4890.2564,3898.9744,3433.8462,3684.1026,3472.3077,3627.1795,3477.4359,3732.8205,3936.4103
3760,4242.0513,4695.8974,4732.8205,4100.5128,3429.2308,3681.5385,3472.8205,3627.6923,3489.7436,3723.0769,3936.4103
3673.8462,4181.0256,4677.4359,4550.2564,4000.5128,3446.1538,3656.9231,3430.7692,3590.2564,3460.5128,3662.0513,3872.3077
3718.4615,4202.0513,4683.0769,4406.1538,3821.0256,3497.9487,3661.0256,3434.8718,3587.6923,3471.7949,3657.9487,3887.6923
3756.9231,4225.1282,4691.2821,4222.5641,3831.2821,3497.9487,3672.3077,3468.2051,3610.2564,3500.5128,3680,3897.9487
3733.8462,4201.0256,4671.7949,4005.641,3884.6154,3477.4359,3665.641,3474.359,3604.6154,3497.9487,3650.7692,3860
3766.6667,4206.6667,4667.1795,3880,3836.4103,3493.3333,3666.1538,3469.7436,3604.1026,3496.4103,3616.4103,3866.6667
3722.0513,4180,4686.1538,3880.5128,3776.4103,3497.9487,3667.6923,3462.0513,3606.1538,3485.1282,3581.5385,3847.6923
3652.8205,4149.2308,4706.6667,3922.0513,3846.6667,3506.1538,3665.1282,3456.4103,3583.0769,3470.2564,3533.8462,3809.2308
3761.5385,4213.8462,4701.5385,3909.7436,3955.8974,3532.3077,3675.8974,3476.4103,3585.1282,3489.7436,3537.9487,3844.1026
3802.0513,4209.7436,4672.3077,3851.2821,3877.4359,3513.3333,3675.3846,3490.2564,3595.3846,3491.2821,3565.641,3856.4103
3688.2051,4130.2564,4657.9487,3748.2051,3696.4103,3494.359,3662.0513,3474.359,3580.5128,3463.0769,3553.3333,3805.1282
3706.1538,4157.9487,4662.5641,3563.0769,3626.6667,3523.0769,3667.1795,3474.359,3587.1795,3475.3846,3561.5385,3823.5897
3780,4185.641,4649.7436,3429.7436,3602.5641,3524.1026,3671.7949,3485.641,3606.1538,3504.1026,3600,3874.359
3712.3077,4135.3846,4633.8462,3426.1538,3533.3333,3495.3846,3663.5897,3475.8974,3603.5897,3498.4615,3601.5385,3857.9487
3723.0769,4142.5641,4634.359,3358.9744,3550.2564,3510.2564,3667.1795,3480,3623.0769,3509.7436,3601.5385,3873.3333
3820,4176.4103,4618.4615,3144.6154,3674.8718,3535.3846,3677.4359,3497.4359,3662.0513,3529.2308,3621.0256,3909.7436
3820,4176.4103,4618.4615,3144.6154,3674.8718,3535.3846,3677.4359,3497.4359,3662.0513,3529.2308,3621.0256,3909.7436
