"AF3","F7","F3","FC5","T7","P7","O1","O2","FC6","F4","F8","AF4"
5607.1795,4391.2821,4086.1538,5461.0256,4225.1282,4118.9744,4121.0256,4169.7436,4085.1282,4147.1795,5733.3333,3687.6923
5557.9487,4361.5385,4075.8974,5389.2308,4193.8462,4116.4103,4117.4359,4152.3077,4114.8718,4129.7436,5691.7949,3677.9487
5524.1026,4360,4075.8974,5341.0256,4186.6667,4119.4872,4121.5385,4147.6923,4175.3846,4136.4103,5607.1795,3655.3846
5521.0256,4355.8974,4093.8462,5328.2051,4208.7179,4122.0513,4134.359,4155.8974,4204.1026,4151.2821,5568.2051,3680.5128
5492.3077,4349.2308,4095.3846,5312.3077,4208.7179,4127.6923,4138.9744,4155.3846,4205.641,4143.5897,5570.7692,3715.3846
5453.8462,4349.2308,4088.7179,5278.4615,4192.8205,4135.3846,4133.8462,4154.8718,4209.7436,4132.3077,5548.2051,3714.8718
5442.0513,4339.4872,4091.2821,5244.6154,4198.9744,4140,4130.2564,4166.1538,4212.8205,4138.9744,5496.9231,3705.641
5432.3077,4332.8205,4088.7179,5220.5128,4201.0256,4141.0256,4133.3333,4170.7692,4202.0513,4143.0769,5465.1282,3714.359
5396.9231,4323.5897,4076.4103,5142.5641,4170.7692,4140.5128,4134.8718,4158.9744,4194.359,4136.4103,5445.1282,3725.1282
5361.0256,4313.8462,4074.359,4961.0256,4146.6667,4137.4359,4136.4103,4152.8205,4202.0513,4137.9487,5404.6154,3720.5128
5354.359,4310.7692,4082.5641,4788.2051,4149.7436,4135.8974,4145.641,4163.0769,4207.6923,4145.641,5355.3846,3721.5385
5349.7436,4304.6154,4077.9487,4724.1026,4148.7179,4138.9744,4149.7436,4170.2564,4213.8462,4143.5897,5293.3333,3710.2564
5327.6923,4308.2051,4065.641,4699.4872,4128.2051,4134.359,4147.6923,4166.1538,4235.8974,4132.8205,5229.2308,3692.3077
5322.0513,4305.641,4066.1538,4666.1538,4127.6923,4132.8205,4149.2308,4164.1026,4281.5385,4135.3846,5175.3846,3720
5327.6923,4297.9487,4075.8974,4658.4615,4146.6667,4146.1538,4157.9487,4168.7179,4321.5385,4156.9231,5136.4103,3749.2308
5299.4872,4303.0769,4081.0256,4663.5897,4152.3077,4155.8974,4163.5897,4176.4103,4318.4615,4158.4615,5146.1538,3752.8205
5260,4296.4103,4079.4872,4651.2821,4153.8462,4155.3846,4166.1538,4183.5897,4308.7179,4141.0256,5184.1026,3778.4615
5235.8974,4285.641,4076.4103,4605.641,4150.2564,4153.3333,4168.2051,4185.1282,4332.8205,4133.8462,5169.7436,3784.6154
5216.4103,4277.9487,4074.359,4556.9231,4125.641,4153.8462,4166.1538,4182.5641,4358.4615,4133.3333,5124.6154,3765.1282
5210.2564,4269.7436,4075.8974,4525.641,4108.2051,4151.7949,4164.6154,4183.5897,4352.3077,4130.2564,5129.7436,3785.1282
5195.8974,4270.2564,4075.3846,4441.5385,4125.641,4152.8205,4169.7436,4189.2308,4363.5897,4136.4103,5142.0513,3798.4615
5164.1026,4267.6923,4077.9487,4318.4615,4142.0513,4159.4872,4170.7692,4188.7179,4401.0256,4142.5641,5113.3333,3784.1026
5154.359,4272.3077,4088.2051,4271.7949,4136.9231,4158.4615,4168.2051,4185.1282,4415.8974,4143.5897,5082.5641,3795.8974
5155.3846,4269.7436,4100.5128,4284.6154,4133.3333,4156.4103,4175.3846,4186.1538,4433.3333,4165.1282,5064.6154,3806.6667
5129.2308,4257.9487,4108.2051,4263.5897,4133.8462,4163.0769,4182.5641,4185.1282,4470.7692,4175.3846,5051.2821,3804.1026
5096.9231,4261.5385,4106.6667,4236.9231,4131.2821,4169.7436,4175.3846,4181.0256,4526.1538,4156.4103,5030.2564,3825.1282
5070.2564,4258.9744,4104.1026,4233.3333,4135.8974,4169.2308,4169.7436,4189.7436,4601.0256,4161.0256,4994.359,3841.0256
5033.8462,4254.8718,4108.2051,4204.6154,4148.2051,4165.1282,4177.4359,4202.5641,4630.7692,4180,4984.1026,3831.7949
5007.1795,4253.8462,4111.7949,4161.0256,4160.5128,4169.2308,4186.6667,4203.5897,4612.3077,4167.1795,5015.3846,3840
4995.8974,4244.6154,4112.8205,4130.7692,4160.5128,4177.9487,4188.2051,4207.1795,4647.6923,4152.8205,5028.2051,3871.7949
4973.3333,4241.5385,4111.7949,4106.1538,4147.6923,4174.359,4186.1538,4212.3077,4713.8462,4166.1538,4987.1795,3874.359
4937.9487,4243.0769,4103.5897,4085.641,4153.8462,4169.7436,4192.3077,4207.6923,4707.6923,4174.359,4958.4615,3851.2821
4924.1026,4247.6923,4102.0513,4076.9231,4168.2051,4178.9744,4201.5385,4202.0513,4693.3333,4165.641,4968.2051,3872.8205
4939.4872,4246.1538,4116.9231,4080.5128,4165.641,4179.4872,4196.9231,4201.0256,4727.6923,4163.5897,4971.7949,3922.0513
4925.1282,4242.0513,4122.5641,4084.1026,4165.641,4168.7179,4189.2308,4202.0513,4741.5385,4169.7436,4951.7949,3912.3077
4863.5897,4244.1026,4106.6667,4078.4615,4156.9231,4166.6667,4185.641,4199.4872,4733.8462,4169.2308,4904.1026,3873.8462
4836.9231,4231.7949,4098.9744,4077.9487,4139.4872,4168.7179,4181.5385,4189.2308,4741.0256,4157.9487,4869.2308,3902.5641
4863.0769,4230.2564,4115.8974,4089.2308,4152.3077,4170.2564,4183.5897,4182.5641,4743.0769,4150.7692,4891.2821,3971.7949
4855.8974,4244.1026,4127.1795,4086.1538,4181.5385,4171.7949,4188.2051,4188.7179,4749.7436,4165.1282,4912.3077,3985.641
4812.8205,4240.5128,4122.5641,4075.8974,4189.2308,4175.8974,4186.1538,4192.3077,4764.6154,4189.7436,4873.8462,3941.5385
4797.9487,4233.3333,4120,4076.4103,4175.3846,4172.3077,4185.1282,4187.6923,4724.1026,4185.1282,4850.7692,3936.4103
4791.2821,4231.7949,4120,4067.6923,4161.5385,4173.3333,4184.6154,4190.7692,4646.1538,4153.8462,4888.7179,3977.4359
4758.4615,4235.8974,4121.0256,4054.359,4161.5385,4187.1795,4185.1282,4198.9744,4626.1538,4146.6667,4889.2308,3969.2308
4741.5385,4233.8462,4125.1282,4056.9231,4175.8974,4163.0769,4192.8205,4204.6154,4619.4872,4164.1026,4847.1795,3944.6154
4741.0256,4223.5897,4121.5385,4057.9487,4174.8718,4096.4103,4194.8718,4201.0256,4561.5385,4160,4830.7692,3957.4359
4705.641,4226.1538,4110.2564,4048.2051,4162.0513,4063.5897,4187.1795,4187.1795,4538.9744,4146.6667,4809.2308,3961.5385
4678.4615,4225.1282,4114.359,4050.7692,4163.5897,4069.7436,4184.1026,4183.0769,4587.1795,4163.5897,4774.8718,3955.8974
4683.5897,4221.0256,4125.1282,4057.9487,4172.3077,4066.1538,4186.1538,4194.8718,4616.4103,4178.9744,4765.641,3973.3333
4669.2308,4225.1282,4123.5897,4053.3333,4175.3846,4062.0513,4188.2051,4196.4103,4606.6667,4176.4103,4755.3846,3983.0769
4643.0769,4218.9744,4117.9487,4046.6667,4155.3846,4071.2821,4184.1026,4184.1026,4603.0769,4167.6923,4726.6667,3991.7949
4629.7436,4220.5128,4113.3333,4046.6667,4138.9744,4069.2308,4172.8205,4178.4615,4612.3077,4157.4359,4693.3333,4008.7179
4621.0256,4221.5385,4116.4103,4044.1026,4161.5385,4067.6923,4171.7949,4183.0769,4622.0513,4154.359,4681.5385,4016.4103
4605.641,4214.359,4117.9487,4036.9231,4179.4872,4074.8718,4180,4182.0513,4616.9231,4156.9231,4691.2821,4025.641
4587.1795,4216.9231,4112.3077,4038.4615,4161.0256,4072.8205,4176.4103,4180,4606.6667,4157.4359,4681.5385,4020.5128
4574.359,4213.3333,4112.3077,4032.8205,4147.6923,4068.2051,4166.1538,4182.5641,4606.6667,4153.3333,4662.5641,4014.359
4564.6154,4211.2821,4117.4359,4020.5128,4153.8462,4069.7436,4170.2564,4180,4608.7179,4157.9487,4662.0513,4040
4551.7949,4208.7179,4117.9487,4025.1282,4150.7692,4080,4177.9487,4176.4103,4606.1538,4166.6667,4662.5641,4066.1538
4524.6154,4203.0769,4117.4359,4030.2564,4137.9487,4081.5385,4174.359,4180,4602.5641,4176.9231,4636.4103,4050.7692
4495.3846,4206.6667,4123.0769,4018.9744,4132.8205,4071.7949,4167.6923,4185.641,4590.7692,4183.5897,4613.8462,4032.3077
4498.4615,4206.6667,4121.0256,4015.8974,4138.9744,4078.4615,4168.2051,4184.6154,4571.7949,4172.3077,4628.2051,4065.641
4507.6923,4209.7436,4116.4103,4022.0513,4141.5385,4092.8205,4175.8974,4181.0256,4556.4103,4155.8974,4632.3077,4095.3846
4481.0256,4207.1795,4115.8974,4018.4615,4134.8718,4090.2564,4175.8974,4181.5385,4552.3077,4156.9231,4592.3077,4075.3846
4454.8718,4201.0256,4121.5385,4015.8974,4137.4359,4084.1026,4169.7436,4181.0256,4551.2821,4169.7436,4548.7179,4058.4615
4457.9487,4206.6667,4129.2308,4022.5641,4144.1026,4091.2821,4174.359,4176.9231,4540.5128,4168.7179,4547.6923,4085.1282
4454.8718,4200.5128,4126.6667,4021.5385,4135.3846,4094.8718,4179.4872,4170.7692,4523.5897,4157.4359,4558.9744,4103.5897
4435.8974,4195.3846,4121.5385,4010.2564,4126.1538,4080.5128,4175.3846,4165.1282,4515.3846,4146.6667,4537.4359,4089.7436
4412.3077,4197.4359,4119.4872,4001.0256,4123.0769,4068.2051,4167.6923,4155.3846,4508.2051,4141.5385,4501.5385,4078.4615
4388.2051,4194.359,4120,4003.0769,4110.2564,4070.7692,4162.0513,4150.7692,4500.5128,4150.2564,4482.5641,4072.3077
4386.6667,4193.3333,4118.9744,4003.5897,4100.5128,4070.7692,4156.4103,4157.9487,4497.4359,4158.9744,4483.5897,4086.6667
4389.7436,4187.6923,4112.8205,3992.8205,4106.1538,4063.0769,4153.3333,4157.4359,4469.2308,4138.9744,4486.1538,4113.3333
4351.2821,4189.2308,4103.5897,3985.1282,4106.1538,4063.5897,4151.7949,4148.7179,4435.8974,4114.359,4462.5641,4093.3333
4320,4193.8462,4103.5897,3996.9231,4103.0769,4073.3333,4153.3333,4151.7949,4453.3333,4132.3077,4419.4872,4052.3077
4332.8205,4183.5897,4111.7949,4014.8718,4112.3077,4072.8205,4155.8974,4159.4872,4469.2308,4148.7179,4423.5897,4071.2821
4318.4615,4180.5128,4101.0256,4007.1795,4098.9744,4058.9744,4145.641,4141.0256,4419.4872,4110.2564,4454.8718,4098.9744
4268.7179,4181.0256,4076.4103,3994.359,4077.4359,4051.2821,4130.2564,4118.9744,4386.6667,4081.5385,4420.5128,4074.8718
4254.8718,4178.9744,4077.9487,4015.3846,4086.6667,4054.8718,4131.7949,4126.6667,4417.4359,4114.8718,4362.5641,4064.1026
4260.5128,4179.4872,4089.2308,4032.8205,4088.2051,4056.9231,4134.359,4135.3846,4408.2051,4129.2308,4384.1026,4089.2308
4244.1026,4177.4359,4072.3077,4013.3333,4066.6667,4051.2821,4120.5128,4120.5128,4352.3077,4091.7949,4414.359,4098.9744
4232.3077,4180.5128,4063.5897,3996.9231,4064.1026,4042.0513,4116.9231,4114.8718,4346.1538,4085.641,4389.7436,4094.8718
4240.5128,4176.4103,4085.641,4000,4067.6923,4039.4872,4129.7436,4133.3333,4362.0513,4122.5641,4374.8718,4097.4359
4226.6667,4173.3333,4084.6154,3991.2821,4037.4359,4042.0513,4126.6667,4135.8974,4326.6667,4125.641,4369.2308,4083.0769
4205.641,4176.9231,4064.1026,3981.5385,4023.0769,4044.1026,4115.3846,4121.5385,4284.1026,4102.5641,4351.2821,4090.2564
4223.5897,4175.3846,4077.9487,3993.3333,4054.8718,4046.1538,4117.9487,4121.0256,4288.2051,4106.1538,4357.4359,4131.7949
4229.7436,4181.0256,4092.8205,4003.5897,4068.7179,4046.6667,4118.4615,4123.5897,4290.7692,4114.8718,4362.5641,4128.2051
4192.8205,4176.4103,4075.3846,4001.0256,4055.3846,4045.1282,4111.2821,4115.3846,4275.3846,4107.1795,4317.9487,4086.6667
4174.359,4168.2051,4072.3077,4007.6923,4056.9231,4049.2308,4116.9231,4113.3333,4276.4103,4107.1795,4287.6923,4087.1795
4185.1282,4176.9231,4085.641,4020,4063.0769,4056.9231,4126.1538,4122.0513,4278.9744,4105.641,4318.9744,4121.5385
4173.8462,4176.4103,4075.8974,4018.4615,4058.4615,4055.3846,4116.4103,4122.0513,4267.1795,4091.2821,4338.9744,4138.4615
4150.7692,4170.7692,4071.2821,4004.6154,4052.3077,4052.3077,4110.2564,4119.4872,4269.2308,4097.4359,4310.2564,4132.3077
4146.6667,4167.6923,4089.2308,3992.3077,4045.641,4060,4117.4359,4122.0513,4276.9231,4115.8974,4297.9487,4120.5128
4138.4615,4167.1795,4087.6923,3985.641,4043.5897,4063.0769,4115.3846,4118.4615,4258.9744,4099.4872,4330.7692,4126.1538
4122.5641,4173.3333,4075.3846,3985.1282,4054.359,4060,4110.2564,4119.4872,4253.3333,4085.1282,4339.4872,4138.4615
4129.2308,4167.1795,4089.2308,3982.5641,4057.9487,4065.1282,4112.8205,4125.1282,4275.3846,4110.7692,4318.9744,4142.0513
4134.8718,4162.5641,4101.5385,3971.7949,4046.1538,4071.7949,4113.3333,4123.0769,4277.4359,4121.5385,4315.8974,4142.0513
4112.8205,4168.2051,4089.7436,3967.6923,4044.6154,4075.3846,4112.3077,4119.4872,4261.5385,4104.6154,4316.9231,4144.1026
4104.1026,4167.6923,4090.2564,3980.5128,4061.5385,4080,4121.0256,4123.0769,4262.0513,4109.7436,4291.2821,4144.1026
4118.4615,4165.641,4104.6154,3992.8205,4073.3333,4081.5385,4127.6923,4124.1026,4272.8205,4128.2051,4256.9231,4143.5897
4123.5897,4166.1538,4105.1282,3996.9231,4069.7436,4077.4359,4116.4103,4120.5128,4266.6667,4123.5897,4262.5641,4168.2051
4122.5641,4176.4103,4108.7179,4005.641,4067.6923,4075.3846,4107.6923,4124.1026,4257.4359,4117.4359,4290.7692,4204.6154
4131.2821,4178.9744,4122.0513,4012.8205,4073.8462,4078.4615,4111.2821,4130.2564,4269.7436,4127.1795,4289.7436,4211.2821
4132.3077,4168.7179,4125.1282,4007.1795,4072.8205,4076.9231,4109.7436,4126.6667,4268.7179,4127.6923,4280.5128,4201.5385
4120,4173.3333,4121.0256,3999.4872,4061.0256,4075.3846,4106.1538,4121.0256,4244.6154,4119.4872,4289.2308,4212.8205
4105.1282,4175.3846,4122.0513,4003.5897,4066.1538,4080,4107.6923,4121.5385,4246.6667,4125.641,4284.1026,4209.2308
4098.4615,4170.2564,4123.5897,4015.8974,4088.2051,4081.5385,4107.1795,4118.9744,4269.2308,4136.9231,4264.6154,4184.6154
4113.8462,4169.7436,4125.1282,4029.7436,4087.6923,4076.9231,4097.9487,4108.7179,4249.2308,4127.6923,4269.7436,4199.4872
4112.3077,4168.2051,4125.1282,4045.641,4079.4872,4076.4103,4091.2821,4102.5641,4211.2821,4117.4359,4269.2308,4221.5385
4095.3846,4172.3077,4123.0769,4068.7179,4096.9231,4076.9231,4097.9487,4112.8205,4214.359,4131.2821,4254.8718,4218.4615
4109.2308,4169.7436,4125.641,4092.8205,4113.3333,4076.4103,4105.641,4125.1282,4220.5128,4136.9231,4258.9744,4229.2308
4107.1795,4165.641,4125.1282,4098.4615,4102.5641,4081.5385,4104.1026,4114.359,4196.4103,4121.5385,4266.6667,4238.9744
4075.8974,4171.7949,4124.1026,4096.9231,4092.8205,4084.6154,4103.0769,4102.5641,4177.9487,4116.9231,4268.7179,4231.7949
4075.3846,4167.6923,4130.2564,4102.5641,4093.8462,4078.4615,4103.5897,4115.3846,4176.9231,4123.0769,4288.2051,4240
4091.2821,4163.0769,4131.7949,4103.5897,4092.3077,4070.7692,4097.4359,4123.5897,4178.9744,4122.5641,4310.7692,4262.5641
4067.1795,4160.5128,4123.0769,4093.3333,4093.3333,4072.3077,4095.3846,4111.2821,4173.8462,4126.1538,4304.6154,4262.0513
4040,4163.0769,4121.5385,4085.1282,4102.0513,4083.5897,4104.1026,4106.1538,4168.2051,4137.4359,4289.2308,4240.5128
4040,4166.1538,4123.0769,4076.9231,4101.5385,4094.359,4108.7179,4109.7436,4171.7949,4140,4275.8974,4227.1795
4031.7949,4152.8205,4116.4103,4058.4615,4083.5897,4096.9231,4103.0769,4107.6923,4173.3333,4137.4359,4263.5897,4240
4031.7949,4155.3846,4120.5128,4050.7692,4081.5385,4092.8205,4107.1795,4114.8718,4168.2051,4137.4359,4269.7436,4265.641
4030.7692,4164.1026,4126.1538,4046.6667,4094.359,4093.3333,4114.359,4126.1538,4174.8718,4142.0513,4253.3333,4247.1795
4001.5385,4156.4103,4110.2564,4022.0513,4080,4095.8974,4109.7436,4117.9487,4180.5128,4141.0256,4198.4615,4206.6667
3994.8718,4151.7949,4106.1538,4012.3077,4066.6667,4094.359,4109.7436,4114.8718,4167.6923,4133.8462,4176.4103,4220.5128
4015.3846,4152.8205,4122.0513,4029.2308,4081.0256,4099.4872,4116.9231,4126.6667,4153.8462,4127.1795,4203.5897,4254.8718
3996.9231,4156.4103,4115.8974,4029.7436,4081.0256,4105.1282,4117.4359,4128.2051,4144.6154,4120,4206.1538,4234.359
3970.7692,4152.3077,4101.5385,4017.9487,4076.9231,4105.641,4115.3846,4126.1538,4135.8974,4118.9744,4186.6667,4204.6154
3989.2308,4148.2051,4114.359,4032.3077,4097.4359,4112.8205,4124.6154,4137.4359,4140.5128,4131.2821,4186.6667,4212.8205
3991.2821,4155.3846,4126.1538,4044.1026,4098.9744,4118.9744,4130.2564,4146.1538,4139.4872,4143.5897,4184.6154,4217.9487
3965.1282,4150.7692,4115.3846,4028.2051,4080,4112.8205,4124.1026,4135.8974,4113.8462,4142.0513,4186.1538,4220
3960,4148.7179,4107.6923,4015.8974,4084.6154,4104.1026,4116.9231,4124.1026,4103.5897,4133.8462,4176.9231,4218.9744
3963.0769,4151.2821,4112.8205,4007.1795,4089.7436,4104.6154,4111.2821,4121.5385,4106.6667,4130.2564,4148.7179,4203.5897
3964.1026,4147.1795,4116.9231,3992.3077,4076.9231,4107.6923,4111.2821,4124.1026,4096.4103,4127.6923,4147.1795,4208.2051
3947.1795,4149.2308,4105.1282,3983.5897,4070.7692,4103.0769,4113.3333,4123.0769,4083.5897,4115.8974,4147.6923,4210.7692
3926.1538,4144.1026,4095.3846,3987.6923,4076.9231,4095.3846,4112.3077,4116.4103,4088.2051,4110.2564,4117.4359,4184.6154
3940.5128,4140.5128,4105.641,4000,4082.5641,4087.6923,4109.2308,4112.3077,4099.4872,4124.6154,4101.0256,4185.641
3946.6667,4144.1026,4108.7179,4007.6923,4084.6154,4078.4615,4102.0513,4104.6154,4085.641,4120.5128,4118.9744,4210.7692
3913.3333,4141.5385,4093.3333,4007.1795,4082.0513,4076.9231,4094.359,4093.3333,4081.5385,4101.0256,4084.1026,4185.1282
3897.4359,4141.0256,4087.6923,4004.1026,4080,4082.5641,4093.3333,4089.7436,4093.3333,4102.5641,4025.641,4160.5128
3909.2308,4137.4359,4093.3333,4004.1026,4080,4080,4094.8718,4092.3077,4074.8718,4096.9231,4060,4198.9744
3895.3846,4139.4872,4090.7692,3999.4872,4074.8718,4075.8974,4093.3333,4090.7692,4042.0513,4071.2821,4110.2564,4211.2821
3883.5897,4142.0513,4089.2308,3990.2564,4071.7949,4085.641,4096.9231,4087.6923,4035.8974,4071.7949,4086.6667,4186.6667
3895.3846,4135.8974,4094.359,3977.9487,4068.2051,4089.2308,4101.0256,4093.8462,4035.8974,4088.7179,4059.4872,4192.3077
3879.4872,4137.9487,4088.2051,3962.0513,4050.7692,4077.4359,4095.3846,4094.8718,4013.3333,4078.4615,4058.9744,4182.5641
3855.8974,4136.4103,4086.1538,3957.4359,4041.0256,4076.4103,4088.7179,4089.7436,4000,4072.3077,4053.8462,4151.2821
3876.4103,4139.4872,4101.0256,3975.3846,4057.9487,4086.1538,4092.8205,4096.4103,4006.1538,4094.359,4060,4177.9487
3900.5128,4151.2821,4112.3077,3997.4359,4076.4103,4090.7692,4103.0769,4111.2821,4018.4615,4109.7436,4063.0769,4207.1795
3882.5641,4145.641,4105.641,4002.5641,4076.9231,4090.7692,4107.1795,4108.2051,4010.7692,4104.1026,4040,4186.6667
3868.7179,4140,4100,4005.1282,4078.4615,4089.7436,4106.1538,4097.9487,3996.4103,4102.5641,4025.1282,4181.5385
3875.3846,4143.0769,4105.1282,4018.4615,4092.3077,4092.3077,4101.5385,4099.4872,4012.8205,4112.3077,4007.6923,4194.359
3868.7179,4142.5641,4108.2051,4035.3846,4097.9487,4092.8205,4097.4359,4102.0513,4008.7179,4108.2051,3997.4359,4195.3846
3855.3846,4137.4359,4106.6667,4048.7179,4095.8974,4089.7436,4096.9231,4095.3846,3965.1282,4090.7692,4028.7179,4206.6667
3849.2308,4134.359,4102.0513,4055.3846,4101.0256,4093.3333,4098.4615,4087.1795,3951.2821,4083.0769,4039.4872,4211.7949
3850.2564,4141.0256,4102.5641,4054.359,4090.2564,4099.4872,4097.9487,4093.3333,3970.7692,4096.9231,4014.8718,4190.2564
3861.5385,4140.5128,4113.8462,4050.2564,4077.9487,4103.5897,4101.0256,4108.2051,3966.6667,4111.2821,4036.4103,4197.9487
3871.7949,4136.4103,4121.5385,4045.641,4093.8462,4112.8205,4114.8718,4115.8974,3952.3077,4107.6923,4081.5385,4233.3333
3868.2051,4146.1538,4117.9487,4040,4106.1538,4124.6154,4125.641,4115.8974,3956.4103,4108.7179,4073.8462,4231.7949
3867.6923,4145.1282,4120,4042.5641,4098.4615,4126.1538,4123.0769,4118.4615,3958.4615,4120.5128,4056.4103,4217.9487
3876.9231,4142.0513,4132.3077,4051.7949,4097.9487,4120.5128,4120,4123.0769,3964.1026,4127.6923,4062.5641,4232.8205
3883.0769,4143.5897,4138.9744,4056.4103,4110.2564,4121.5385,4122.5641,4123.0769,3975.8974,4130.2564,4057.9487,4242.0513
3889.7436,4141.0256,4144.6154,4065.641,4117.4359,4131.7949,4120.5128,4122.0513,3975.3846,4130.2564,4055.3846,4233.8462
3885.641,4144.1026,4152.3077,4081.5385,4120,4131.2821,4116.9231,4119.4872,3982.5641,4131.7949,4044.6154,4238.9744
3876.9231,4141.0256,4157.9487,4092.8205,4126.6667,4122.0513,4118.9744,4121.5385,4009.7436,4147.1795,4015.8974,4251.2821
3889.2308,4136.4103,4168.2051,4105.1282,4143.5897,4127.6923,4126.6667,4131.7949,4013.3333,4155.3846,4028.2051,4263.0769
3907.6923,4134.359,4170.2564,4123.0769,4158.4615,4142.5641,4133.3333,4140.5128,3992.3077,4140.5128,4056.4103,4284.1026
3899.4872,4132.3077,4154.359,4131.7949,4152.8205,4140,4130.7692,4136.4103,3987.1795,4132.3077,4032.8205,4275.3846
3884.1026,4136.4103,4145.641,4129.2308,4148.7179,4134.8718,4130.2564,4132.3077,3992.8205,4138.4615,4014.8718,4250.2564
3902.5641,4130.7692,4155.8974,4114.8718,4145.641,4148.7179,4138.4615,4138.9744,3992.8205,4143.5897,4043.0769,4264.6154
3908.2051,4130.2564,4157.4359,4084.6154,4124.6154,4160,4140.5128,4141.0256,3988.7179,4141.5385,4043.0769,4274.359
3889.7436,4138.4615,4147.6923,4061.0256,4113.3333,4150.2564,4141.5385,4137.9487,3986.6667,4140,4020,4251.7949
3906.1538,4135.3846,4150.2564,4056.9231,4121.5385,4140.5128,4150.2564,4141.5385,3989.7436,4143.5897,4025.641,4254.359
3920,4131.7949,4154.8718,4054.8718,4121.5385,4149.7436,4158.9744,4142.5641,3979.4872,4140.5128,4024.6154,4267.1795
3895.8974,4128.7179,4150.2564,4056.9231,4124.1026,4158.4615,4161.0256,4137.9487,3968.2051,4129.7436,4002.0513,4247.1795
3885.1282,4130.7692,4149.7436,4080,4144.6154,4152.8205,4162.5641,4135.8974,3991.7949,4143.5897,3978.4615,4228.2051
3904.1026,4132.3077,4158.9744,4120.5128,4159.4872,4150.7692,4160.5128,4140.5128,4003.0769,4162.0513,3984.1026,4257.9487
3903.0769,4127.1795,4158.9744,4154.359,4166.6667,4155.3846,4154.8718,4140.5128,3969.2308,4147.6923,4018.4615,4297.4359
3888.7179,4130.2564,4153.8462,4164.6154,4168.2051,4145.1282,4153.3333,4137.9487,3966.1538,4141.5385,4027.6923,4292.8205
3887.6923,4127.6923,4156.4103,4158.9744,4158.4615,4134.8718,4153.3333,4140,3980,4161.0256,4007.6923,4274.359
3862.5641,4124.1026,4150.2564,4142.0513,4151.7949,4148.2051,4149.7436,4136.9231,3945.1282,4153.3333,3998.9744,4263.5897
3836.9231,4127.6923,4140.5128,4122.5641,4152.3077,4153.3333,4145.641,4126.6667,3920.5128,4130.2564,4003.0769,4246.6667
3857.9487,4126.1538,4149.2308,4118.9744,4148.2051,4138.4615,4146.1538,4126.1538,3937.9487,4136.4103,4009.2308,4247.6923
3883.0769,4130.2564,4161.5385,4124.6154,4147.1795,4138.4615,4153.8462,4135.8974,3950.2564,4149.7436,4007.6923,4270.2564
3880,4134.359,4158.4615,4121.0256,4154.359,4155.8974,4162.5641,4138.4615,3961.0256,4153.3333,3995.3846,4273.3333
3872.8205,4133.3333,4153.3333,4114.8718,4152.3077,4163.5897,4168.2051,4136.4103,3965.641,4155.3846,3997.4359,4268.7179
3868.7179,4132.3077,4156.4103,4111.2821,4146.1538,4165.1282,4172.3077,4139.4872,3948.2051,4147.6923,4009.2308,4278.9744
3868.7179,4128.2051,4163.5897,4113.8462,4155.3846,4172.3077,4172.8205,4141.0256,3944.6154,4141.5385,3999.4872,4272.3077
3879.4872,4131.7949,4169.2308,4128.2051,4167.6923,4168.2051,4172.8205,4141.5385,3958.4615,4148.2051,3987.6923,4266.6667
3878.9744,4134.359,4168.2051,4138.4615,4170.7692,4158.4615,4171.2821,4148.2051,3962.0513,4153.3333,3990.2564,4283.5897
3861.0256,4132.3077,4164.6154,4129.2308,4169.7436,4161.0256,4173.8462,4155.3846,3973.8462,4160.5128,3972.3077,4273.8462
3861.5385,4130.7692,4169.7436,4119.4872,4164.6154,4168.7179,4176.9231,4158.9744,3988.7179,4173.3333,3963.0769,4260
3876.4103,4126.1538,4182.0513,4126.1538,4156.9231,4171.2821,4172.8205,4155.8974,3981.0256,4172.3077,3997.4359,4300
3876.9231,4133.8462,4184.6154,4130.2564,4154.8718,4167.6923,4170.2564,4151.2821,3982.5641,4166.1538,3997.4359,4313.3333
3864.1026,4134.8718,4176.4103,4116.4103,4151.7949,4162.5641,4173.8462,4152.3077,3999.4872,4174.359,3957.4359,4269.7436
3847.1795,4125.1282,4170.7692,4102.5641,4144.1026,4161.5385,4170.2564,4148.2051,3982.5641,4164.6154,3957.9487,4264.6154
3853.3333,4134.359,4174.359,4105.641,4147.1795,4163.5897,4162.5641,4136.9231,3951.7949,4143.0769,3985.1282,4288.2051
3869.2308,4137.9487,4175.8974,4115.3846,4157.9487,4162.5641,4160.5128,4137.4359,3959.4872,4149.2308,3979.4872,4275.8974
3851.2821,4131.2821,4169.2308,4114.359,4158.4615,4154.359,4162.0513,4147.1795,3966.1538,4151.7949,3965.641,4256.9231
3826.6667,4126.6667,4163.0769,4106.6667,4154.359,4148.7179,4162.5641,4145.1282,3948.7179,4135.8974,3965.641,4245.641
3833.3333,4120.5128,4163.5897,4101.0256,4153.3333,4150.2564,4165.1282,4138.9744,3943.5897,4135.8974,3960,4240.5128
3836.9231,4124.1026,4167.1795,4096.9231,4151.2821,4146.6667,4169.2308,4141.0256,3949.2308,4146.1538,3955.8974,4252.8205
3815.8974,4122.0513,4166.6667,4086.6667,4147.1795,4141.0256,4166.1538,4141.5385,3942.0513,4141.0256,3951.2821,4253.3333
3812.8205,4116.4103,4165.641,4071.7949,4130.7692,4141.0256,4157.9487,4138.4615,3938.9744,4135.8974,3936.4103,4238.4615
3823.5897,4123.5897,4169.2308,4057.4359,4116.4103,4136.9231,4155.3846,4136.9231,3940.5128,4136.4103,3929.7436,4242.5641
3816.4103,4126.6667,4169.2308,4041.5385,4118.4615,4128.7179,4156.9231,4131.2821,3940.5128,4136.4103,3925.641,4238.9744
3814.8718,4120,4169.2308,4025.641,4115.3846,4129.7436,4153.8462,4123.0769,3951.2821,4141.0256,3914.359,4217.4359
3834.359,4115.3846,4178.4615,4021.5385,4113.8462,4137.4359,4153.8462,4125.641,3958.4615,4142.0513,3929.7436,4236.4103
3846.1538,4126.1538,4187.1795,4035.8974,4125.1282,4145.1282,4166.6667,4135.3846,3961.0256,4140,3956.9231,4272.8205
3843.0769,4127.6923,4184.1026,4051.7949,4127.1795,4153.8462,4178.4615,4141.0256,3981.0256,4148.7179,3930.2564,4273.3333
3851.2821,4117.4359,4184.6154,4057.9487,4131.7949,4156.9231,4181.5385,4147.6923,3997.4359,4161.5385,3905.641,4268.7179
3864.6154,4128.7179,4193.3333,4068.7179,4153.8462,4154.8718,4185.1282,4157.4359,3993.3333,4162.0513,3937.4359,4275.8974
3860.5128,4131.2821,4192.3077,4080.5128,4156.9231,4158.4615,4185.1282,4157.4359,3987.6923,4145.1282,3953.8462,4274.359
3850.2564,4121.5385,4184.1026,4073.8462,4143.5897,4160,4173.8462,4144.6154,3984.1026,4128.2051,3929.2308,4276.4103
3846.6667,4125.1282,4183.5897,4059.4872,4139.4872,4153.8462,4168.2051,4139.4872,3981.0256,4129.2308,3915.3846,4280
3844.6154,4123.5897,4185.641,4051.7949,4129.7436,4155.8974,4174.8718,4146.6667,3986.1538,4137.4359,3917.4359,4267.1795
3853.8462,4122.0513,4187.6923,4039.4872,4120.5128,4166.6667,4183.0769,4152.3077,3991.7949,4137.9487,3926.1538,4269.7436
3860,4124.6154,4187.6923,4025.1282,4123.5897,4169.7436,4184.6154,4154.8718,3988.7179,4136.4103,3940.5128,4283.0769
3846.1538,4121.5385,4185.641,4007.1795,4114.8718,4159.4872,4181.5385,4150.7692,3979.4872,4136.4103,3928.7179,4267.1795
3855.3846,4118.4615,4187.1795,3985.641,4097.9487,4151.2821,4178.4615,4141.5385,3974.359,4134.359,3908.2051,4257.9487
3873.8462,4120.5128,4189.2308,3995.3846,4107.6923,4156.4103,4175.3846,4142.5641,3980.5128,4136.4103,3908.2051,4266.6667
3850.2564,4127.6923,4184.1026,4008.7179,4129.7436,4166.1538,4175.3846,4153.3333,3993.3333,4137.4359,3906.6667,4259.4872
3847.1795,4123.0769,4181.0256,3973.3333,4136.9231,4170.7692,4175.8974,4154.359,3998.9744,4139.4872,3906.1538,4256.9231
3877.9487,4121.0256,4185.641,3946.6667,4142.0513,4166.6667,4173.8462,4149.2308,4000.5128,4146.6667,3909.2308,4273.3333
3870.7692,4134.359,4192.8205,3984.6154,4157.4359,4167.1795,4172.8205,4154.359,4006.1538,4153.8462,3907.6923,4275.8974
3866.6667,4130.2564,4201.0256,4036.4103,4173.3333,4175.8974,4173.3333,4160.5128,4010.2564,4157.9487,3910.2564,4275.3846
3879.4872,4121.5385,4201.0256,4051.2821,4182.0513,4170.2564,4171.2821,4155.8974,4002.5641,4150.2564,3917.9487,4290.7692
3857.9487,4123.5897,4190.2564,4045.641,4186.6667,4154.359,4166.1538,4150.2564,3989.7436,4132.3077,3923.0769,4300.5128
3849.7436,4124.6154,4188.2051,4041.5385,4188.2051,4158.4615,4166.6667,4152.3077,3987.6923,4121.5385,3930.2564,4298.4615
3867.6923,4129.7436,4195.8974,4036.4103,4183.0769,4167.6923,4169.7436,4149.7436,3990.7692,4122.0513,3928.7179,4284.6154
3851.7949,4125.1282,4196.9231,4016.4103,4167.1795,4160,4169.2308,4147.6923,3993.3333,4128.7179,3913.8462,4266.1538
3841.5385,4124.1026,4197.4359,3990.2564,4154.8718,4157.9487,4172.3077,4160,4000,4140,3921.0256,4272.3077
3869.7436,4126.6667,4203.5897,3975.3846,4155.3846,4170.7692,4174.8718,4165.1282,4007.1795,4147.1795,3933.3333,4283.5897
3860,4120.5128,4198.4615,3957.4359,4142.5641,4175.3846,4170.2564,4154.359,4008.7179,4141.5385,3916.9231,4270.2564
3825.641,4125.1282,4186.1538,3950.2564,4132.3077,4170.7692,4169.2308,4154.359,4017.4359,4139.4872,3901.0256,4260
3841.0256,4123.5897,4187.6923,3968.2051,4143.5897,4168.7179,4171.2821,4159.4872,4025.1282,4145.641,3909.7436,4276.9231
3877.4359,4120.5128,4198.9744,3987.1795,4152.8205,4167.6923,4169.7436,4153.3333,4014.359,4149.2308,3923.0769,4285.1282
3882.0513,4128.7179,4204.1026,4002.0513,4162.5641,4167.1795,4168.7179,4154.8718,4020,4151.2821,3927.6923,4277.4359
3864.6154,4130.2564,4203.0769,4023.0769,4176.9231,4160,4161.5385,4157.4359,4046.6667,4156.4103,3917.9487,4283.5897
3859.4872,4126.6667,4203.0769,4035.3846,4174.359,4147.6923,4149.7436,4146.6667,4036.4103,4157.4359,3900,4289.7436
3873.8462,4121.0256,4202.5641,4033.8462,4169.7436,4149.7436,4146.6667,4135.8974,3998.4615,4142.5641,3908.7179,4287.6923
3879.4872,4123.5897,4196.9231,4035.3846,4177.4359,4162.5641,4150.7692,4135.8974,4000.5128,4129.7436,3932.3077,4290.2564
3866.6667,4127.6923,4192.8205,4034.359,4178.4615,4166.6667,4152.8205,4141.0256,4029.7436,4145.1282,3927.1795,4288.2051
3864.1026,4120.5128,4191.2821,4018.4615,4170.2564,4159.4872,4153.3333,4144.6154,4031.7949,4158.9744,3914.359,4272.3077
3861.0256,4120.5128,4181.5385,3994.8718,4158.4615,4157.9487,4154.359,4140.5128,4012.8205,4139.4872,3920.5128,4261.5385
3852.8205,4119.4872,4175.3846,3972.3077,4144.1026,4167.6923,4153.3333,4134.8718,4007.1795,4124.6154,3933.8462,4268.2051
3855.3846,4121.5385,4179.4872,3951.2821,4137.9487,4168.7179,4153.3333,4141.5385,4015.3846,4136.9231,3931.2821,4266.6667
3855.8974,4126.1538,4183.0769,3940,4137.9487,4164.6154,4155.3846,4151.7949,4022.0513,4143.5897,3913.8462,4256.4103
3849.2308,4115.8974,4184.6154,3946.6667,4137.4359,4169.7436,4157.9487,4153.8462,4022.5641,4140,3900.5128,4252.8205
3842.5641,4113.8462,4182.0513,3955.8974,4136.9231,4171.2821,4157.4359,4151.2821,4021.0256,4137.4359,3884.6154,4242.5641
3846.1538,4114.359,4173.3333,3961.5385,4138.9744,4166.6667,4155.8974,4152.8205,4021.0256,4132.8205,3862.5641,4240.5128
3861.5385,4111.7949,4170.2564,3971.2821,4138.4615,4170.2564,4156.4103,4154.8718,4020.5128,4127.6923,3861.5385,4263.0769
3861.5385,4117.9487,4178.9744,3977.4359,4138.4615,4172.8205,4162.0513,4153.8462,4023.0769,4122.0513,3875.8974,4274.359
3851.7949,4116.9231,4184.6154,3972.3077,4141.5385,4167.6923,4165.1282,4160.5128,4035.3846,4125.641,3868.2051,4253.3333
3863.5897,4115.3846,4187.6923,3973.8462,4137.9487,4167.1795,4163.0769,4166.1538,4038.9744,4137.9487,3855.3846,4245.1282
3873.8462,4116.9231,4187.1795,3986.6667,4136.4103,4170.7692,4161.5385,4158.9744,4028.2051,4136.9231,3860,4264.6154
3866.1538,4116.4103,4185.641,3992.3077,4152.3077,4168.2051,4165.641,4156.4103,4032.3077,4130.2564,3852.8205,4272.3077
3865.1282,4116.9231,4186.6667,3993.3333,4158.9744,4164.1026,4169.2308,4167.6923,4047.1795,4137.4359,3840,4261.0256
3873.3333,4112.3077,4185.641,3999.4872,4143.0769,4165.641,4165.1282,4170.2564,4039.4872,4141.0256,3847.6923,4252.3077
3873.3333,4116.9231,4187.6923,4005.1282,4141.0256,4169.7436,4167.6923,4161.5385,4033.3333,4137.9487,3853.3333,4259.4872
3867.6923,4118.4615,4187.1795,3998.4615,4155.3846,4172.3077,4168.7179,4159.4872,4038.9744,4140,3835.8974,4265.641
3864.1026,4112.8205,4182.5641,3990.7692,4155.8974,4168.2051,4156.4103,4152.3077,4028.2051,4133.3333,3824.6154,4253.3333
3867.6923,4115.8974,4183.0769,3993.8462,4146.6667,4165.1282,4152.3077,4143.0769,4023.0769,4124.6154,3829.2308,4245.641
3871.2821,4115.8974,4183.0769,3994.8718,4148.2051,4169.7436,4161.0256,4150.2564,4035.8974,4129.7436,3825.641,4250.2564
3856.4103,4114.359,4172.8205,3983.5897,4141.5385,4166.6667,4160.5128,4152.8205,4030.7692,4129.7436,3814.8718,4239.4872
3848.2051,4107.6923,4164.6154,3959.4872,4113.8462,4155.8974,4152.8205,4145.641,4015.3846,4118.4615,3812.3077,4227.1795
3853.8462,4106.1538,4168.7179,3944.6154,4106.6667,4154.8718,4153.3333,4146.6667,4020.5128,4117.4359,3810.2564,4234.8718
3863.0769,4120,4175.8974,3945.641,4121.5385,4155.3846,4156.9231,4147.6923,4029.7436,4128.2051,3794.359,4231.7949
3863.5897,4111.7949,4172.3077,3925.641,4106.1538,4145.1282,4151.7949,4136.4103,4018.9744,4121.0256,3786.6667,4215.8974
3847.1795,4103.5897,4164.1026,3887.1795,4088.2051,4137.4359,4143.5897,4130.7692,4014.8718,4104.6154,3784.6154,4210.7692
3847.6923,4117.4359,4174.359,3885.641,4118.9744,4144.1026,4147.6923,4140.5128,4035.8974,4121.5385,3777.4359,4212.3077
3874.8718,4118.9744,4187.1795,3921.5385,4148.2051,4148.2051,4154.359,4141.5385,4043.5897,4139.4872,3784.1026,4218.4615
3883.5897,4111.2821,4176.4103,3943.0769,4139.4872,4136.9231,4145.641,4126.6667,4034.359,4117.9487,3783.0769,4229.7436
3873.3333,4108.2051,4164.6154,3948.7179,4138.9744,4130.2564,4135.3846,4121.0256,4034.8718,4098.9744,3774.8718,4235.8974
3870.2564,4109.7436,4170.2564,3949.2308,4149.7436,4138.4615,4139.4872,4127.1795,4030.7692,4107.6923,3784.6154,4238.4615
3861.5385,4109.2308,4169.2308,3935.3846,4138.9744,4142.0513,4145.641,4125.641,4011.7949,4110.2564,3790.7692,4231.2821
3851.7949,4106.1538,4157.9487,3925.1282,4123.0769,4141.5385,4144.1026,4124.1026,4011.2821,4105.1282,3788.2051,4207.6923
3856.9231,4110.7692,4157.4359,3918.9744,4120.5128,4148.7179,4144.6154,4135.3846,4025.641,4105.641,3789.7436,4196.4103
3865.641,4110.7692,4165.1282,3878.4615,4118.4615,4155.8974,4152.3077,4140.5128,4021.5385,4104.6154,3793.3333,4220.5128
3863.0769,4109.7436,4169.7436,3815.8974,4112.3077,4153.3333,4152.3077,4132.8205,4017.9487,4111.7949,3781.0256,4224.6154
3850.7692,4111.7949,4170.2564,3787.6923,4104.1026,4151.2821,4140.5128,4126.6667,4026.6667,4124.6154,3764.1026,4193.8462
3851.2821,4107.1795,4172.8205,3794.8718,4102.5641,4152.8205,4137.9487,4129.7436,4031.2821,4124.1026,3762.5641,4194.8718
3870.7692,4110.7692,4183.0769,3806.1538,4110.2564,4154.359,4154.359,4137.9487,4037.4359,4132.8205,3765.1282,4207.6923
3885.1282,4115.8974,4190.7692,3827.6923,4125.1282,4156.4103,4163.5897,4145.1282,4046.1538,4151.2821,3772.8205,4205.1282
3880,4114.8718,4185.1282,3856.9231,4135.8974,4157.9487,4160,4143.5897,4043.0769,4147.6923,3782.0513,4225.641
3876.4103,4112.8205,4180,3865.1282,4138.4615,4155.8974,4154.359,4137.4359,4043.5897,4133.3333,3771.2821,4235.3846
3871.2821,4103.5897,4181.5385,3858.9744,4138.4615,4158.4615,4151.7949,4138.9744,4057.4359,4138.4615,3759.4872,4206.1538
3863.5897,4105.1282,4175.8974,3863.0769,4136.4103,4164.1026,4153.8462,4147.6923,4052.3077,4140.5128,3794.359,4212.3077
3875.3846,4109.2308,4168.2051,3876.9231,4138.9744,4165.1282,4154.8718,4147.6923,4036.4103,4129.2308,3832.3077,4246.1538
3870.2564,4104.1026,4167.1795,3878.9744,4141.0256,4160,4153.3333,4145.641,4049.2308,4131.2821,3815.8974,4215.3846
3841.5385,4104.6154,4165.641,3876.4103,4135.3846,4154.359,4153.3333,4151.7949,4062.0513,4138.9744,3801.5385,4176.4103
3848.7179,4101.0256,4164.1026,3905.641,4143.0769,4158.4615,4152.8205,4156.9231,4049.7436,4138.9744,3825.641,4195.8974
3879.4872,4104.6154,4168.2051,3947.6923,4160.5128,4166.1538,4153.8462,4156.4103,4041.5385,4139.4872,3842.5641,4221.0256
3875.3846,4109.7436,4167.6923,3956.9231,4152.8205,4169.7436,4153.3333,4150.7692,4040.5128,4135.3846,3838.9744,4215.8974
3857.4359,4102.0513,4162.5641,3947.6923,4141.0256,4168.2051,4150.2564,4140.5128,4036.4103,4130.7692,3826.6667,4205.1282
3857.4359,4101.0256,4167.1795,3941.0256,4147.1795,4164.1026,4151.7949,4142.0513,4036.9231,4138.4615,3813.3333,4202.0513
3858.9744,4100,4166.6667,3917.4359,4133.8462,4157.4359,4153.3333,4147.1795,4030.7692,4142.5641,3806.6667,4198.4615
3848.2051,4101.0256,4154.359,3883.0769,4103.5897,4149.2308,4151.2821,4137.9487,4021.0256,4130.2564,3799.4872,4192.3077
3848.7179,4103.0769,4155.8974,3865.1282,4105.641,4152.8205,4151.7949,4139.4872,4031.7949,4129.7436,3795.8974,4197.4359
3868.7179,4099.4872,4170.2564,3861.5385,4118.9744,4166.6667,4154.8718,4150.7692,4051.7949,4141.5385,3793.8462,4205.641
3868.2051,4104.1026,4170.7692,3865.641,4117.4359,4168.7179,4154.359,4151.2821,4061.0256,4145.1282,3781.0256,4197.9487
3852.8205,4104.6154,4165.1282,3888.7179,4132.8205,4160.5128,4151.7949,4151.7949,4060.5128,4150.7692,3782.0513,4193.8462
3876.9231,4105.641,4171.2821,3936.9231,4155.3846,4161.5385,4153.8462,4157.4359,4066.1538,4157.9487,3790.2564,4213.3333
3905.641,4110.7692,4175.8974,3986.6667,4160.5128,4164.1026,4154.8718,4151.2821,4069.7436,4150.7692,3787.1795,4216.9231
3884.1026,4105.641,4165.641,4000,4159.4872,4154.8718,4144.6154,4137.9487,4052.3077,4137.9487,3788.2051,4197.4359
3873.3333,4101.0256,4154.359,3985.641,4153.8462,4152.3077,4136.4103,4132.8205,4030.7692,4132.8205,3798.4615,4203.5897
3881.5385,4097.9487,4153.3333,3973.3333,4138.9744,4157.9487,4135.3846,4133.3333,4029.7436,4125.641,3797.4359,4215.8974
3862.0513,4100,4154.359,3963.0769,4127.6923,4154.359,4138.9744,4138.4615,4039.4872,4121.0256,3799.4872,4198.9744
3857.9487,4105.1282,4152.3077,3954.359,4126.6667,4147.6923,4142.0513,4142.0513,4044.6154,4129.2308,3817.4359,4190.7692
3879.4872,4103.5897,4151.7949,3954.359,4121.5385,4150.7692,4140,4139.4872,4048.7179,4141.5385,3827.6923,4209.2308
3877.9487,4105.641,4153.8462,3953.8462,4116.9231,4154.359,4141.5385,4137.9487,4049.7436,4151.2821,3817.9487,4196.9231
3866.6667,4103.0769,4154.359,3957.9487,4122.5641,4156.9231,4150.2564,4145.1282,4049.2308,4156.4103,3811.2821,4167.6923
3879.4872,4100,4155.8974,3971.7949,4124.6154,4164.1026,4151.7949,4149.7436,4054.359,4154.8718,3822.5641,4192.3077
3887.1795,4105.1282,4159.4872,3985.641,4124.6154,4165.641,4144.1026,4143.5897,4063.5897,4155.3846,3826.6667,4218.4615
3883.0769,4101.0256,4162.5641,3998.4615,4126.6667,4155.8974,4141.0256,4138.4615,4062.5641,4158.9744,3818.4615,4208.2051
3882.5641,4103.0769,4159.4872,4005.641,4120,4148.7179,4140,4133.3333,4052.3077,4151.2821,3814.359,4196.4103
3883.0769,4105.1282,4150.7692,4002.0513,4118.4615,4151.7949,4134.8718,4126.6667,4049.7436,4138.4615,3808.2051,4190.7692
3884.6154,4104.1026,4145.1282,4000,4134.8718,4154.359,4134.8718,4128.2051,4045.641,4132.3077,3808.2051,4192.8205
3882.0513,4106.6667,4140.5128,4002.0513,4136.9231,4152.3077,4138.4615,4136.9231,4041.5385,4130.2564,3817.4359,4199.4872
3874.359,4101.0256,4135.3846,4005.641,4126.1538,4153.3333,4138.9744,4140,4052.8205,4138.9744,3818.9744,4188.7179
3883.0769,4102.0513,4143.5897,4011.2821,4130.7692,4151.2821,4137.9487,4141.0256,4057.4359,4153.8462,3818.9744,4179.4872
3897.9487,4104.6154,4151.7949,4013.8462,4131.7949,4145.1282,4135.8974,4140.5128,4040.5128,4152.3077,3833.3333,4197.4359
3883.0769,4103.5897,4143.0769,4012.3077,4119.4872,4145.1282,4134.359,4136.4103,4041.0256,4145.1282,3828.2051,4194.8718
3867.6923,4107.1795,4134.8718,4018.4615,4120,4150.2564,4137.4359,4138.4615,4065.641,4153.3333,3800,4176.9231
3883.0769,4103.0769,4140,4034.8718,4135.3846,4156.4103,4140.5128,4139.4872,4063.0769,4155.3846,3804.1026,4195.3846
3881.0256,4104.1026,4141.0256,4049.7436,4142.5641,4153.8462,4136.9231,4135.8974,4035.3846,4140.5128,3830.7692,4201.5385
3856.9231,4108.7179,4132.8205,4054.8718,4144.1026,4143.0769,4131.2821,4136.9231,4032.8205,4132.3077,3826.6667,4175.3846
3864.6154,4106.6667,4132.3077,4051.7949,4138.9744,4141.5385,4127.1795,4136.4103,4045.1282,4135.8974,3804.6154,4169.2308
3880.5128,4110.2564,4140,4043.0769,4123.5897,4146.1538,4124.1026,4128.7179,4038.4615,4137.4359,3811.2821,4177.4359
3868.2051,4106.1538,4138.9744,4026.1538,4115.8974,4148.7179,4122.0513,4123.5897,4034.359,4134.359,3824.6154,4172.3077
4075.8974,4097.4359,4104.6154,4171.2821,4121.0256,4115.3846,4121.0256,4114.359,4128.7179,4151.2821,4062.0513,4082.5641
4071.2821,4091.7949,4108.7179,4169.2308,4110.7692,4116.4103,4115.8974,4107.6923,4127.6923,4151.7949,4062.0513,4081.0256
4075.3846,4100.5128,4114.359,4171.7949,4085.1282,4104.6154,4108.7179,4108.2051,4136.4103,4154.359,4064.6154,4085.1282
4079.4872,4097.4359,4111.2821,4171.2821,4096.4103,4101.5385,4109.2308,4110.7692,4138.4615,4155.3846,4066.1538,4083.5897
4072.3077,4088.2051,4105.641,4166.6667,4128.2051,4118.4615,4113.8462,4108.2051,4135.3846,4155.3846,4062.0513,4078.9744
4071.7949,4092.3077,4107.1795,4167.6923,4113.8462,4116.9231,4117.9487,4109.7436,4138.4615,4158.4615,4058.4615,4080.5128
4080,4095.8974,4113.8462,4174.8718,4093.3333,4097.9487,4117.4359,4114.359,4141.0256,4159.4872,4059.4872,4082.0513
4076.4103,4098.4615,4108.2051,4170.2564,4114.8718,4106.6667,4116.4103,4111.7949,4136.4103,4155.3846,4058.9744,4075.8974
4065.641,4091.7949,4090.7692,4155.8974,4133.8462,4128.2051,4118.4615,4107.6923,4126.6667,4146.1538,4058.4615,4068.7179
4065.641,4090.7692,4086.6667,4157.9487,4117.9487,4120.5128,4116.9231,4106.6667,4121.5385,4141.0256,4058.9744,4065.1282
4076.9231,4105.1282,4102.0513,4172.8205,4108.2051,4101.0256,4107.6923,4104.6154,4124.1026,4147.6923,4063.0769,4070.7692
4083.0769,4101.5385,4109.7436,4173.3333,4123.0769,4097.4359,4098.9744,4095.3846,4124.6154,4157.4359,4067.1795,4076.4103
4080,4098.4615,4106.6667,4169.2308,4126.6667,4095.3846,4098.4615,4087.1795,4124.1026,4155.8974,4067.6923,4072.8205
4078.9744,4102.5641,4108.2051,4176.4103,4106.6667,4089.7436,4101.5385,4092.3077,4125.1282,4153.3333,4070.7692,4070.7692
4079.4872,4097.4359,4107.6923,4176.4103,4105.641,4100,4105.641,4104.1026,4124.6154,4153.3333,4073.3333,4073.3333
4075.3846,4096.4103,4105.1282,4169.2308,4126.1538,4111.7949,4109.7436,4108.7179,4122.5641,4151.2821,4072.3077,4073.8462
4076.9231,4097.4359,4107.1795,4176.4103,4126.6667,4110.2564,4111.7949,4105.641,4124.6154,4152.3077,4072.3077,4072.8205
4084.6154,4100,4107.6923,4182.5641,4114.8718,4109.7436,4113.3333,4104.6154,4130.7692,4155.3846,4074.8718,4075.3846
4089.2308,4101.0256,4109.2308,4175.8974,4118.4615,4109.2308,4117.9487,4115.3846,4137.9487,4163.0769,4081.5385,4088.2051
4089.2308,4099.4872,4114.8718,4170.7692,4126.6667,4113.3333,4122.5641,4122.0513,4141.5385,4170.2564,4086.6667,4094.8718
4086.6667,4104.6154,4118.4615,4171.2821,4122.0513,4127.6923,4122.5641,4116.4103,4143.0769,4168.7179,4088.7179,4089.7436
4092.3077,4101.0256,4121.0256,4175.8974,4118.4615,4134.8718,4120,4115.8974,4153.3333,4170.2564,4096.4103,4093.3333
4098.9744,4100,4122.0513,4184.6154,4124.1026,4121.5385,4117.4359,4123.0769,4157.4359,4172.3077,4102.5641,4098.9744
4094.359,4105.641,4116.9231,4186.6667,4126.6667,4112.8205,4115.3846,4116.4103,4145.641,4165.1282,4094.8718,4088.2051
4095.8974,4104.1026,4111.7949,4184.6154,4127.1795,4129.2308,4120,4109.2308,4143.0769,4163.0769,4092.3077,4082.5641
4103.0769,4104.1026,4114.359,4186.6667,4137.4359,4139.4872,4127.1795,4117.9487,4151.2821,4167.1795,4100,4088.7179
4096.4103,4097.4359,4111.2821,4186.1538,4139.4872,4124.1026,4124.1026,4118.4615,4147.1795,4161.0256,4102.5641,4085.641
4082.0513,4096.4103,4099.4872,4183.5897,4122.5641,4102.0513,4115.3846,4108.2051,4136.9231,4150.7692,4097.4359,4075.8974
4080,4103.0769,4096.9231,4182.0513,4115.3846,4101.5385,4108.7179,4104.6154,4136.9231,4143.5897,4094.8718,4072.3077
4084.6154,4100,4104.1026,4180,4129.2308,4118.9744,4105.641,4103.0769,4137.4359,4141.0256,4098.4615,4072.8205
4083.0769,4101.5385,4106.6667,4183.0769,4134.359,4120.5128,4107.1795,4098.9744,4136.4103,4143.0769,4098.9744,4070.2564
4077.4359,4100.5128,4103.5897,4182.5641,4125.1282,4108.2051,4108.2051,4095.8974,4136.4103,4144.1026,4094.359,4064.6154
4080.5128,4102.0513,4106.1538,4178.9744,4123.0769,4109.2308,4108.7179,4097.4359,4134.8718,4146.1538,4095.8974,4062.0513
4090.2564,4105.641,4110.7692,4179.4872,4120,4122.0513,4108.2051,4098.4615,4136.9231,4152.3077,4101.5385,4067.6923
4088.2051,4098.9744,4107.6923,4181.0256,4115.3846,4119.4872,4107.1795,4096.9231,4138.9744,4152.8205,4104.6154,4072.3077
4085.1282,4102.5641,4107.1795,4183.0769,4129.7436,4112.3077,4111.2821,4098.9744,4138.4615,4151.7949,4109.2308,4072.3077
4094.359,4103.0769,4111.2821,4183.0769,4147.1795,4123.0769,4117.9487,4109.2308,4139.4872,4156.9231,4120,4078.4615
4092.8205,4097.4359,4109.7436,4173.8462,4141.0256,4127.6923,4121.5385,4117.9487,4141.5385,4156.9231,4121.0256,4077.4359
4085.641,4103.0769,4110.2564,4171.2821,4133.8462,4118.4615,4123.0769,4118.4615,4140,4154.8718,4118.4615,4069.7436
4098.9744,4104.1026,4120.5128,4182.5641,4140,4116.4103,4123.0769,4122.5641,4139.4872,4156.9231,4130.2564,4078.9744
4107.6923,4103.5897,4125.1282,4185.1282,4137.4359,4121.5385,4124.6154,4126.6667,4144.1026,4154.8718,4138.9744,4088.2051
4096.4103,4101.0256,4120,4179.4872,4133.3333,4121.5385,4124.6154,4118.4615,4140.5128,4151.7949,4134.8718,4082.5641
4095.3846,4102.5641,4119.4872,4183.0769,4137.9487,4119.4872,4120.5128,4105.641,4131.2821,4151.7949,4133.3333,4082.5641
4107.1795,4109.2308,4124.6154,4188.2051,4143.5897,4118.9744,4118.9744,4101.0256,4130.7692,4153.3333,4134.359,4088.7179
4111.7949,4106.1538,4125.1282,4187.6923,4143.5897,4117.9487,4119.4872,4102.5641,4132.8205,4153.8462,4136.9231,4088.7179
4110.7692,4110.2564,4123.5897,4194.359,4136.4103,4114.359,4119.4872,4103.5897,4138.9744,4154.359,4147.1795,4086.1538
4112.3077,4111.7949,4129.7436,4204.1026,4139.4872,4115.3846,4121.0256,4106.6667,4142.5641,4155.8974,4161.0256,4090.2564
4116.4103,4107.1795,4132.3077,4200.5128,4146.1538,4120.5128,4121.0256,4105.641,4110.2564,4157.4359,4161.0256,4092.8205
4115.3846,4108.7179,4123.5897,4190.7692,4126.6667,4117.4359,4116.9231,4095.8974,4062.5641,4150.2564,4153.3333,4086.6667
4112.3077,4103.0769,4121.0256,4195.3846,4116.9231,4107.1795,4109.7436,4088.2051,4060,4143.5897,4154.8718,4086.1538
4109.7436,4102.5641,4125.1282,4203.5897,4142.5641,4108.7179,4107.1795,4090.7692,4076.4103,4145.641,4154.8718,4088.2051
4107.6923,4108.2051,4119.4872,4197.4359,4154.8718,4125.1282,4114.359,4101.0256,4068.2051,4145.641,4153.8462,4082.5641
4104.6154,4105.1282,4113.3333,4191.2821,4135.8974,4125.1282,4121.5385,4104.1026,4064.1026,4141.5385,4155.8974,4075.8974
4104.1026,4107.1795,4120,4196.4103,4127.6923,4105.641,4121.0256,4101.0256,4073.3333,4146.1538,4153.3333,4077.9487
4115.3846,4106.1538,4126.6667,4203.5897,4143.0769,4106.6667,4122.0513,4103.0769,4074.8718,4156.4103,4157.9487,4087.1795
4120,4103.5897,4125.1282,4203.0769,4152.8205,4122.0513,4125.641,4106.1538,4074.359,4156.9231,4166.6667,4088.7179
4115.3846,4103.0769,4123.5897,4200.5128,4154.8718,4131.7949,4128.2051,4109.7436,4082.5641,4156.4103,4170.7692,4089.2308
4116.4103,4104.1026,4129.2308,4206.1538,4153.3333,4135.3846,4133.8462,4118.9744,4092.8205,4166.1538,4178.4615,4097.9487
4124.1026,4109.2308,4138.9744,4212.3077,4154.359,4131.7949,4142.0513,4128.2051,4100,4172.3077,4183.5897,4103.5897
4127.1795,4104.6154,4136.4103,4213.3333,4161.0256,4123.0769,4138.9744,4126.6667,4106.1538,4169.7436,4178.4615,4103.5897
4120.5128,4103.5897,4125.1282,4210.7692,4155.3846,4122.0513,4128.7179,4120,4107.1795,4167.1795,4176.4103,4101.5385
4120,4108.2051,4126.6667,4209.2308,4135.3846,4125.1282,4126.1538,4117.9487,4105.1282,4168.7179,4182.0513,4103.0769
4131.7949,4105.641,4140,4216.4103,4142.5641,4123.0769,4128.7179,4121.5385,4107.1795,4171.7949,4190.7692,4109.2308
4137.4359,4109.7436,4143.0769,4217.9487,4167.6923,4119.4872,4127.6923,4122.5641,4110.2564,4172.8205,4193.3333,4111.7949
4131.2821,4107.1795,4135.8974,4207.1795,4155.3846,4123.0769,4123.0769,4111.2821,4106.1538,4166.6667,4187.6923,4103.0769
4133.8462,4104.6154,4140.5128,4209.2308,4135.3846,4132.8205,4123.5897,4101.5385,4103.5897,4168.2051,4187.6923,4102.5641
4143.5897,4112.3077,4152.8205,4219.4872,4152.3077,4128.2051,4122.5641,4110.2564,4111.2821,4183.5897,4195.8974,4116.9231
4150.7692,4111.2821,4155.8974,4221.0256,4172.3077,4117.9487,4122.0513,4123.0769,4126.6667,4191.7949,4206.6667,4127.6923
4153.3333,4111.2821,4156.4103,4228.2051,4172.3077,4130.7692,4133.8462,4128.7179,4137.9487,4189.7436,4216.9231,4131.7949
4147.1795,4105.641,4156.9231,4234.359,4164.6154,4140.5128,4137.9487,4126.1538,4132.3077,4189.2308,4212.3077,4124.6154
4135.3846,4100.5128,4146.1538,4218.4615,4150.2564,4126.1538,4125.641,4116.4103,4116.4103,4184.1026,4195.8974,4106.6667
4134.8718,4105.1282,4135.8974,4207.1795,4147.1795,4117.9487,4118.4615,4107.6923,4111.2821,4175.8974,4192.8205,4101.5385
4143.0769,4106.6667,4141.0256,4218.9744,4155.3846,4123.5897,4122.0513,4108.7179,4114.8718,4170.7692,4195.8974,4112.8205
4134.8718,4109.7436,4138.9744,4217.4359,4144.1026,4123.5897,4124.1026,4106.1538,4107.6923,4157.9487,4182.5641,4102.5641
4121.5385,4105.1282,4126.1538,4200,4134.8718,4124.1026,4118.4615,4096.9231,4098.9744,4146.1538,4177.4359,4085.1282
4132.8205,4105.641,4132.8205,4206.1538,4152.8205,4129.7436,4117.4359,4101.0256,4110.2564,4159.4872,4197.9487,4100.5128
4151.2821,4116.9231,4152.3077,4224.1026,4173.3333,4137.4359,4127.1795,4114.8718,4125.641,4181.0256,4216.9231,4123.5897
4150.2564,4108.7179,4148.7179,4215.3846,4167.1795,4146.6667,4123.5897,4113.8462,4124.1026,4182.0513,4216.4103,4121.5385
4139.4872,4101.0256,4136.4103,4202.0513,4138.4615,4136.4103,4107.1795,4103.5897,4116.9231,4169.2308,4208.7179,4108.7179
4143.0769,4105.1282,4143.0769,4214.8718,4138.9744,4114.8718,4110.7692,4108.2051,4121.0256,4168.7179,4214.359,4112.3077
4150.7692,4105.641,4149.7436,4223.0769,4166.6667,4114.359,4122.0513,4117.4359,4128.7179,4176.4103,4222.5641,4120
4143.5897,4105.641,4139.4872,4213.8462,4166.1538,4125.641,4115.3846,4112.8205,4123.5897,4172.3077,4215.3846,4110.7692
4132.3077,4101.5385,4131.7949,4213.3333,4150.2564,4124.6154,4104.6154,4103.0769,4110.7692,4157.9487,4203.0769,4097.4359
4131.2821,4104.1026,4135.8974,4217.4359,4151.7949,4118.9744,4109.2308,4104.1026,4107.6923,4156.9231,4198.4615,4095.8974
4137.4359,4104.6154,4138.9744,4209.7436,4154.359,4123.5897,4120.5128,4112.3077,4113.3333,4167.1795,4200,4099.4872
4135.8974,4098.9744,4137.4359,4200.5128,4149.2308,4130.2564,4118.9744,4110.2564,4109.2308,4168.2051,4197.9487,4097.9487
4137.4359,4106.6667,4142.5641,4207.6923,4144.1026,4135.8974,4113.8462,4105.641,4101.0256,4163.5897,4194.359,4098.4615
4147.1795,4106.1538,4153.8462,4218.4615,4143.0769,4138.4615,4114.359,4112.3077,4107.6923,4174.8718,4203.5897,4108.2051
4151.7949,4103.5897,4157.9487,4214.8718,4153.3333,4131.2821,4118.9744,4117.9487,4120,4188.7179,4213.8462,4117.4359
4149.2308,4107.6923,4153.8462,4207.6923,4162.5641,4126.6667,4119.4872,4117.9487,4123.5897,4183.5897,4211.7949,4118.4615
4144.6154,4103.5897,4148.2051,4204.6154,4152.8205,4132.8205,4115.3846,4118.4615,4120,4172.8205,4202.5641,4109.7436
4139.4872,4102.0513,4142.0513,4202.5641,4150.7692,4139.4872,4117.4359,4116.9231,4121.5385,4168.2051,4200,4102.0513
4133.3333,4101.5385,4131.2821,4199.4872,4162.5641,4141.5385,4119.4872,4112.3077,4123.0769,4162.5641,4203.5897,4098.9744
4121.0256,4102.0513,4120.5128,4196.4103,4143.0769,4135.3846,4110.2564,4105.1282,4111.7949,4151.7949,4192.8205,4087.6923
4117.4359,4102.0513,4118.9744,4196.4103,4118.4615,4121.0256,4105.1282,4104.1026,4106.1538,4150.2564,4183.5897,4084.1026
4127.6923,4100.5128,4124.6154,4203.0769,4141.0256,4120,4116.4103,4114.8718,4115.8974,4155.3846,4193.3333,4096.9231
4126.6667,4106.1538,4122.5641,4204.6154,4168.2051,4134.359,4121.5385,4119.4872,4121.5385,4150.7692,4195.3846,4095.8974
4125.641,4103.5897,4123.0769,4201.5385,4157.4359,4134.359,4112.8205,4107.6923,4118.9744,4151.7949,4190.7692,4091.7949
4143.5897,4106.1538,4142.5641,4210.7692,4146.6667,4121.0256,4112.8205,4102.5641,4122.0513,4173.8462,4200.5128,4110.2564
4153.3333,4112.8205,4154.359,4221.5385,4155.8974,4126.6667,4120,4114.8718,4129.7436,4186.6667,4210.2564,4122.5641
4147.6923,4104.6154,4144.1026,4220,4161.0256,4148.7179,4123.5897,4124.6154,4134.359,4181.0256,4209.7436,4115.3846
4146.6667,4106.6667,4140,4216.4103,4161.0256,4156.4103,4128.2051,4129.7436,4138.4615,4181.5385,4214.359,4113.8462
4148.7179,4109.2308,4144.1026,4215.3846,4162.5641,4145.641,4130.7692,4130.7692,4142.0513,4187.1795,4224.1026,4118.4615
4139.4872,4103.5897,4134.8718,4209.2308,4160.5128,4141.5385,4127.6923,4124.6154,4135.8974,4176.9231,4220.5128,4109.7436
4126.6667,4104.1026,4122.5641,4200.5128,4157.9487,4153.8462,4121.0256,4121.0256,4126.1538,4161.5385,4202.5641,4093.3333
4118.9744,4101.5385,4116.9231,4193.3333,4155.3846,4157.4359,4113.3333,4114.8718,4122.0513,4155.3846,4189.2308,4084.1026
4109.2308,4099.4872,4110.7692,4184.6154,4147.1795,4135.3846,4110.2564,4106.6667,4121.5385,4152.3077,4191.2821,4076.4103
4108.2051,4098.4615,4113.3333,4182.0513,4136.4103,4121.0256,4106.6667,4105.641,4120.5128,4154.359,4197.4359,4073.3333
4123.0769,4105.641,4128.7179,4189.7436,4128.7179,4125.1282,4105.641,4107.6923,4120.5128,4164.1026,4197.9487,4080
4136.4103,4115.3846,4140.5128,4196.9231,4133.8462,4125.641,4112.8205,4108.2051,4121.0256,4173.3333,4206.1538,4092.3077
4134.8718,4106.6667,4139.4872,4202.5641,4150.7692,4129.2308,4121.5385,4108.7179,4121.5385,4173.8462,4219.4872,4102.0513
4131.7949,4104.1026,4137.4359,4200,4157.9487,4137.4359,4126.1538,4111.2821,4124.6154,4170.7692,4222.5641,4102.0513
4138.4615,4107.6923,4140.5128,4190.2564,4152.3077,4132.3077,4123.0769,4115.8974,4125.641,4172.8205,4221.0256,4098.9744
4140.5128,4102.0513,4136.9231,4187.1795,4142.0513,4120.5128,4116.4103,4120.5128,4122.5641,4172.3077,4218.9744,4093.8462
4131.2821,4103.0769,4124.6154,4189.2308,4136.9231,4118.4615,4113.8462,4118.4615,4117.9487,4162.5641,4212.8205,4085.641
4124.6154,4103.0769,4121.0256,4187.1795,4146.6667,4124.1026,4117.9487,4111.7949,4111.7949,4154.359,4210.7692,4083.5897
4127.6923,4105.1282,4127.1795,4186.1538,4156.9231,4128.7179,4123.5897,4108.7179,4111.7949,4157.4359,4216.9231,4088.7179
4128.7179,4106.1538,4126.6667,4188.2051,4152.3077,4127.1795,4121.5385,4109.2308,4119.4872,4158.4615,4214.8718,4087.6923
4118.4615,4100,4120.5128,4186.6667,4145.1282,4133.3333,4117.9487,4105.1282,4121.0256,4145.641,4202.5641,4073.3333
4117.9487,4102.0513,4120.5128,4189.2308,4144.6154,4140,4118.4615,4101.5385,4120,4140,4200.5128,4072.3077
4136.9231,4103.5897,4134.8718,4200.5128,4148.7179,4128.2051,4121.0256,4109.2308,4131.7949,4157.9487,4222.5641,4093.3333
4152.8205,4110.2564,4154.8718,4214.359,4160,4123.5897,4123.5897,4123.5897,4148.7179,4180,4245.1282,4110.7692
4151.7949,4115.8974,4156.4103,4219.4872,4167.1795,4135.8974,4125.1282,4128.2051,4149.7436,4180.5128,4240.5128,4107.6923
4140,4108.2051,4140,4208.7179,4153.8462,4135.3846,4123.0769,4120.5128,4137.4359,4163.0769,4220.5128,4093.3333
4131.7949,4106.6667,4134.8718,4198.9744,4141.0256,4130.2564,4123.0769,4114.359,4134.359,4153.3333,4214.359,4087.6923
4126.1538,4102.0513,4140,4197.9487,4142.0513,4138.4615,4124.1026,4112.3077,4137.9487,4156.4103,4218.9744,4088.2051
4119.4872,4102.0513,4135.3846,4199.4872,4143.0769,4138.4615,4117.4359,4107.1795,4132.3077,4157.9487,4215.8974,4085.641
4120.5128,4105.641,4126.1538,4197.4359,4135.3846,4129.7436,4111.7949,4101.5385,4124.6154,4154.8718,4207.1795,4080.5128
4122.0513,4097.9487,4120,4187.6923,4125.641,4131.2821,4116.9231,4100,4121.0256,4149.7436,4201.0256,4074.8718
4116.9231,4101.5385,4126.1538,4186.1538,4129.7436,4125.1282,4123.0769,4107.6923,4120.5128,4149.7436,4203.0769,4076.4103
4123.5897,4108.2051,4139.4872,4200,4146.1538,4119.4872,4124.1026,4116.4103,4128.7179,4158.4615,4216.4103,4090.2564
4136.9231,4106.6667,4138.9744,4205.1282,4150.7692,4132.3077,4122.0513,4110.7692,4137.4359,4161.0256,4224.1026,4101.0256
4134.359,4104.1026,4132.8205,4195.8974,4141.0256,4137.9487,4120.5128,4107.6923,4135.8974,4160.5128,4222.5641,4097.4359
4132.3077,4102.0513,4136.9231,4197.9487,4142.0513,4130.7692,4122.0513,4120.5128,4143.5897,4166.1538,4230.7692,4102.0513
4134.359,4108.2051,4135.8974,4203.5897,4150.7692,4132.3077,4125.1282,4128.7179,4154.8718,4165.641,4233.8462,4105.641
4121.0256,4101.0256,4118.4615,4193.8462,4146.1538,4140,4121.5385,4123.5897,4145.641,4150.7692,4213.8462,4090.2564
4110.7692,4094.8718,4109.2308,4184.6154,4137.4359,4132.3077,4117.9487,4123.0769,4141.5385,4140.5128,4204.1026,4081.5385
4114.8718,4104.6154,4108.7179,4181.5385,4142.0513,4130.2564,4121.0256,4118.4615,4152.3077,4139.4872,4215.8974,4085.641
4116.9231,4104.1026,4106.6667,4185.641,4145.641,4144.6154,4117.9487,4111.2821,4153.3333,4138.4615,4222.0513,4087.6923
4116.9231,4103.0769,4112.8205,4193.8462,4137.9487,4135.8974,4112.8205,4117.9487,4151.2821,4139.4872,4217.4359,4085.641
4121.5385,4104.6154,4120.5128,4192.8205,4137.9487,4120.5128,4114.8718,4119.4872,4149.7436,4141.0256,4218.4615,4084.6154
4118.4615,4104.6154,4116.9231,4183.0769,4142.0513,4132.8205,4118.9744,4105.641,4137.4359,4138.9744,4215.8974,4080.5128
4115.3846,4106.6667,4111.2821,4181.0256,4138.9744,4149.2308,4118.4615,4101.5385,4136.9231,4134.8718,4210.7692,4082.0513
4128.2051,4106.6667,4117.4359,4192.8205,4144.6154,4140.5128,4118.4615,4113.8462,4152.8205,4143.5897,4222.0513,4094.8718
4138.9744,4111.2821,4132.8205,4201.0256,4153.8462,4124.6154,4122.5641,4121.5385,4156.4103,4156.9231,4231.7949,4101.0256
4132.3077,4106.1538,4137.4359,4198.4615,4146.6667,4124.6154,4124.1026,4127.1795,4151.7949,4157.9487,4223.5897,4097.9487
4126.6667,4099.4872,4131.7949,4194.359,4138.4615,4130.7692,4127.6923,4132.3077,4156.4103,4155.8974,4214.8718,4096.9231
4130.7692,4107.6923,4134.359,4201.0256,4143.0769,4133.3333,4128.7179,4129.7436,4162.0513,4157.4359,4213.8462,4100
4129.2308,4104.1026,4134.359,4201.0256,4144.1026,4137.9487,4122.5641,4121.0256,4155.3846,4155.3846,4211.2821,4096.9231
4118.4615,4098.4615,4123.5897,4189.7436,4137.9487,4142.0513,4121.0256,4117.4359,4149.7436,4151.2821,4204.1026,4087.1795
4119.4872,4103.5897,4127.1795,4192.3077,4136.4103,4134.359,4121.5385,4122.5641,4151.7949,4153.8462,4204.1026,4089.2308
4132.8205,4103.5897,4141.5385,4202.5641,4138.4615,4120.5128,4113.3333,4123.0769,4152.3077,4158.9744,4209.7436,4104.1026
4134.359,4103.5897,4141.0256,4199.4872,4133.8462,4115.8974,4106.1538,4116.4103,4152.3077,4160.5128,4214.359,4107.6923
4131.2821,4103.0769,4137.9487,4195.8974,4135.3846,4122.5641,4111.7949,4115.3846,4158.4615,4161.5385,4220,4105.1282
4134.359,4107.1795,4135.3846,4200,4147.6923,4141.0256,4119.4872,4116.4103,4162.5641,4158.9744,4219.4872,4103.5897
4132.8205,4109.2308,4123.5897,4199.4872,4149.2308,4151.7949,4116.9231,4112.8205,4164.1026,4155.3846,4211.2821,4095.3846
4129.7436,4103.5897,4120,4196.4103,4144.6154,4139.4872,4109.2308,4111.2821,4168.2051,4152.3077,4209.2308,4086.1538
4126.6667,4104.6154,4124.1026,4196.9231,4148.2051,4130.2564,4107.6923,4108.7179,4168.7179,4146.1538,4208.2051,4085.1282
4130.7692,4101.5385,4121.5385,4197.9487,4147.6923,4138.9744,4111.2821,4108.7179,4172.8205,4145.1282,4207.6923,4093.8462
4137.9487,4103.0769,4123.5897,4202.0513,4139.4872,4138.4615,4118.9744,4119.4872,4185.1282,4154.8718,4214.359,4104.1026
4133.8462,4106.6667,4126.6667,4203.0769,4138.9744,4128.7179,4124.1026,4128.2051,4186.1538,4156.9231,4216.9231,4103.5897
4121.5385,4098.4615,4120,4193.8462,4141.5385,4128.7179,4120,4124.6154,4174.359,4144.6154,4208.7179,4093.3333
4118.4615,4101.0256,4117.9487,4189.7436,4135.3846,4132.3077,4114.8718,4120.5128,4172.8205,4135.8974,4202.5641,4089.7436
4125.641,4103.5897,4123.5897,4197.4359,4137.4359,4138.4615,4118.4615,4118.4615,4178.4615,4141.5385,4206.6667,4095.8974
4130.7692,4105.1282,4128.7179,4204.6154,4147.6923,4141.5385,4122.5641,4121.0256,4181.0256,4152.8205,4215.3846,4103.0769
4132.3077,4109.7436,4122.5641,4201.5385,4146.6667,4132.8205,4116.4103,4125.1282,4184.6154,4152.8205,4224.1026,4105.641
4127.1795,4098.4615,4110.7692,4192.8205,4131.2821,4122.5641,4106.1538,4118.9744,4187.6923,4142.5641,4220.5128,4098.9744
4115.8974,4094.359,4107.1795,4184.1026,4121.5385,4121.5385,4104.6154,4117.4359,4180,4138.9744,4203.0769,4086.1538
4106.1538,4096.4103,4102.5641,4173.8462,4130.7692,4123.5897,4106.1538,4122.0513,4167.1795,4134.8718,4189.2308,4077.9487
4101.0256,4096.4103,4095.3846,4173.8462,4138.9744,4122.5641,4105.641,4113.3333,4162.5641,4125.1282,4185.641,4077.9487
4105.1282,4102.0513,4101.5385,4184.1026,4131.2821,4117.9487,4107.1795,4106.1538,4169.2308,4132.3077,4193.3333,4086.1538
4110.7692,4099.4872,4110.2564,4187.1795,4124.6154,4114.359,4104.6154,4107.6923,4173.3333,4139.4872,4196.9231,4093.3333
4105.641,4097.4359,4108.7179,4182.5641,4121.5385,4118.4615,4098.9744,4107.1795,4167.1795,4127.1795,4183.5897,4085.1282
4106.6667,4097.9487,4113.3333,4185.641,4123.5897,4124.1026,4104.1026,4112.3077,4168.7179,4128.7179,4181.5385,4080
4115.8974,4102.5641,4120.5128,4189.2308,4131.7949,4127.6923,4109.7436,4114.359,4172.8205,4141.5385,4193.3333,4093.3333
4117.9487,4106.1538,4117.9487,4189.2308,4132.3077,4132.8205,4105.641,4109.7436,4167.1795,4137.9487,4192.8205,4103.0769
4126.1538,4102.5641,4122.5641,4199.4872,4134.359,4133.3333,4105.1282,4117.4359,4173.8462,4144.1026,4195.8974,4109.2308
4135.8974,4105.641,4131.2821,4201.5385,4142.0513,4126.6667,4111.7949,4129.2308,4191.7949,4158.4615,4207.6923,4114.8718
4122.5641,4097.9487,4119.4872,4186.1538,4122.5641,4117.9487,4108.2051,4122.5641,4183.5897,4145.1282,4197.4359,4107.1795
4111.2821,4093.8462,4110.2564,4184.1026,4110.7692,4122.0513,4106.6667,4117.9487,4171.2821,4134.359,4184.6154,4098.4615
4123.5897,4110.2564,4118.9744,4197.4359,4122.0513,4129.7436,4119.4872,4125.1282,4184.1026,4150.7692,4195.8974,4104.1026
4134.359,4109.2308,4123.0769,4198.9744,4110.2564,4128.2051,4117.9487,4125.1282,4189.7436,4154.359,4201.5385,4109.7436
4136.4103,4104.1026,4126.1538,4197.9487,4101.5385,4127.6923,4106.1538,4123.0769,4186.6667,4147.6923,4200,4112.3077
4140.5128,4110.2564,4136.9231,4204.1026,4127.6923,4134.8718,4109.7436,4125.641,4195.8974,4151.7949,4212.3077,4117.9487
4127.6923,4105.1282,4113.8462,4166.1538,4103.0769,4120,4108.7179,4102.0513,4161.0256,4118.9744,4217.9487,4108.2051
4137.9487,4104.1026,4110.7692,4170.7692,4094.359,4117.9487,4107.6923,4111.7949,4168.2051,4124.6154,4217.9487,4112.8205
4134.8718,4106.6667,4115.8974,4172.3077,4123.0769,4127.6923,4111.2821,4107.1795,4163.0769,4123.0769,4212.8205,4110.2564
4130.2564,4100,4123.5897,4172.3077,4136.9231,4136.4103,4114.8718,4105.641,4158.9744,4127.1795,4219.4872,4116.4103
4128.2051,4101.5385,4116.9231,4172.3077,4118.9744,4128.7179,4113.3333,4107.1795,4159.4872,4125.1282,4222.5641,4116.4103
4125.1282,4102.0513,4107.6923,4165.1282,4103.0769,4113.8462,4103.5897,4093.8462,4156.9231,4118.9744,4210.2564,4105.1282
4117.9487,4100.5128,4109.2308,4154.359,4108.2051,4118.9744,4096.9231,4084.1026,4152.3077,4120.5128,4204.6154,4098.4615
4119.4872,4105.1282,4111.7949,4154.8718,4117.4359,4135.8974,4103.5897,4096.9231,4152.8205,4121.0256,4218.4615,4099.4872
4126.6667,4100,4109.7436,4161.5385,4107.1795,4134.359,4107.1795,4106.6667,4155.8974,4115.8974,4227.1795,4099.4872
4119.4872,4099.4872,4106.6667,4150.2564,4100,4120,4098.9744,4094.8718,4154.359,4108.7179,4216.9231,4092.3077
4109.2308,4101.0256,4105.641,4140,4107.6923,4118.4615,4093.8462,4085.1282,4148.2051,4105.641,4210.7692,4088.7179
4116.4103,4100,4108.2051,4153.3333,4105.641,4124.1026,4098.4615,4095.8974,4148.7179,4110.2564,4222.0513,4094.359
4125.641,4104.1026,4109.2308,4160.5128,4107.6923,4121.5385,4106.6667,4109.7436,4159.4872,4114.359,4229.7436,4103.0769
4115.8974,4100.5128,4099.4872,4144.6154,4093.3333,4118.4615,4107.6923,4107.6923,4158.9744,4110.2564,4224.1026,4097.4359
4100.5128,4098.4615,4094.359,4133.8462,4065.1282,4127.1795,4106.6667,4105.1282,4151.7949,4106.1538,4221.0256,4085.641
4104.1026,4098.9744,4105.641,4141.0256,4090.2564,4138.4615,4115.3846,4116.9231,4157.4359,4112.3077,4224.6154,4092.3077
4113.3333,4098.4615,4107.1795,4141.5385,4128.2051,4133.3333,4120.5128,4121.0256,4162.5641,4115.8974,4222.5641,4096.9231
4106.1538,4101.5385,4092.3077,4131.7949,4116.4103,4121.5385,4110.7692,4111.2821,4153.3333,4104.1026,4212.8205,4084.6154
4093.8462,4097.9487,4085.1282,4132.3077,4096.9231,4122.0513,4104.6154,4107.6923,4141.0256,4091.2821,4204.6154,4076.4103
4087.6923,4095.3846,4089.2308,4135.8974,4082.5641,4121.0256,4106.6667,4106.6667,4138.4615,4092.3077,4197.4359,4074.359
4089.7436,4095.3846,4091.2821,4129.7436,4072.8205,4118.9744,4110.7692,4110.7692,4145.1282,4104.1026,4199.4872,4080
4102.5641,4098.9744,4094.359,4129.2308,4102.0513,4129.2308,4122.5641,4121.5385,4150.2564,4112.3077,4214.8718,4093.8462
4108.2051,4107.6923,4097.4359,4138.9744,4114.8718,4134.8718,4128.7179,4121.0256,4146.1538,4110.2564,4215.3846,4095.8974
4099.4872,4098.9744,4092.8205,4133.8462,4087.6923,4137.9487,4121.0256,4113.8462,4138.4615,4104.1026,4202.0513,4084.6154
4101.0256,4100,4090.2564,4124.1026,4090.7692,4140.5128,4119.4872,4120,4138.4615,4105.1282,4204.6154,4085.1282
4108.2051,4107.1795,4094.359,4125.641,4104.6154,4130.2564,4125.1282,4123.0769,4141.5385,4109.2308,4216.9231,4090.7692
4090.7692,4093.8462,4093.8462,4124.1026,4082.5641,4119.4872,4113.8462,4107.6923,4136.9231,4104.6154,4202.5641,4080
4080,4094.8718,4088.7179,4128.2051,4076.4103,4121.5385,4103.5897,4102.0513,4129.2308,4097.4359,4182.5641,4070.2564
4101.0256,4105.1282,4089.7436,4138.9744,4101.5385,4123.5897,4112.8205,4116.4103,4125.641,4096.9231,4192.3077,4075.8974
4110.2564,4104.6154,4090.2564,4139.4872,4097.4359,4122.5641,4118.4615,4121.5385,4124.6154,4094.8718,4202.0513,4077.9487
4103.0769,4103.0769,4088.7179,4136.4103,4080,4128.2051,4110.2564,4109.2308,4124.6154,4096.9231,4197.4359,4078.9744
4110.7692,4106.1538,4101.0256,4143.0769,4094.359,4129.2308,4104.1026,4103.5897,4126.6667,4108.2051,4203.0769,4092.3077
4118.4615,4109.2308,4113.3333,4144.6154,4102.0513,4125.1282,4109.7436,4112.3077,4129.2308,4115.3846,4210.2564,4097.9487
4107.1795,4101.0256,4103.5897,4140.5128,4086.6667,4126.1538,4107.6923,4111.7949,4126.6667,4110.2564,4199.4872,4085.1282
4100.5128,4100.5128,4093.3333,4137.9487,4087.1795,4126.1538,4101.0256,4106.1538,4120.5128,4108.7179,4193.3333,4081.0256
4102.0513,4104.1026,4100.5128,4134.8718,4097.4359,4121.0256,4104.6154,4110.7692,4117.4359,4111.2821,4197.4359,4086.1538
4073.8462,4083.0769,4077.9487,4111.2821,4053.3333,4089.2308,4078.4615,4087.1795,4094.8718,4085.1282,4169.7436,4055.3846
4010.7692,4066.1538,4012.8205,4057.4359,3967.1795,4029.7436,4016.9231,4028.2051,4042.5641,4026.1538,4107.1795,3991.7949
3973.3333,4065.641,3979.4872,4025.1282,3947.1795,3993.8462,3984.1026,4000,4013.3333,3992.8205,4076.9231,3963.5897
3967.1795,4063.0769,3973.8462,4014.8718,3974.359,3978.4615,3974.8718,3995.3846,4008.7179,3985.641,4071.2821,3957.9487
3940.5128,4055.8974,3934.8718,3977.4359,3942.0513,3936.9231,3932.8205,3951.7949,3978.9744,3944.1026,4032.3077,3921.5385
3944.1026,4059.4872,3913.3333,3960.5128,3894.359,3907.6923,3901.5385,3914.8718,3955.8974,3913.3333,4012.8205,3915.8974
4028.7179,4093.8462,3964.6154,4015.8974,3921.0256,3929.7436,3929.2308,3941.0256,3985.641,3956.9231,4063.5897,3991.2821
4123.5897,4115.3846,4022.0513,4073.3333,3962.0513,3956.9231,3950.2564,3964.1026,4017.9487,4008.2051,4120.5128,4072.8205
4184.6154,4118.4615,4038.4615,4083.5897,3956.4103,3954.8718,3941.0256,3951.7949,4024.1026,4016.9231,4140.5128,4113.8462
4238.9744,4130.7692,4053.8462,4103.5897,3952.3077,3950.7692,3947.1795,3958.9744,4042.5641,4031.7949,4161.5385,4149.2308
4257.4359,4125.1282,4071.2821,4130.2564,3962.5641,3968.7179,3958.9744,3978.9744,4065.641,4052.3077,4187.1795,4173.8462
4229.2308,4112.8205,4067.6923,4115.8974,3954.8718,3987.6923,3960,3976.4103,4064.6154,4046.1538,4186.1538,4163.5897
4217.4359,4114.359,4058.4615,4099.4872,3956.9231,3983.5897,3966.1538,3978.4615,4061.0256,4040.5128,4175.8974,4151.7949
4216.4103,4112.8205,4063.0769,4109.2308,3984.1026,3977.9487,3977.9487,3998.4615,4065.641,4048.7179,4173.8462,4145.1282
4187.1795,4103.0769,4065.641,4104.1026,3994.8718,3995.3846,3984.6154,4006.1538,4062.5641,4046.6667,4166.6667,4123.5897
4159.4872,4094.359,4058.4615,4086.6667,3996.4103,4011.2821,3989.7436,4004.1026,4058.4615,4035.3846,4156.9231,4107.1795
4150.7692,4101.5385,4058.9744,4092.8205,4014.359,4006.6667,3998.9744,4012.3077,4061.0256,4035.3846,4154.8718,4106.1538
4131.7949,4097.4359,4059.4872,4095.8974,4010.2564,4003.0769,4003.5897,4016.4103,4049.2308,4035.3846,4144.1026,4090.7692
4104.6154,4084.1026,4049.2308,4081.0256,3992.8205,4015.3846,4002.5641,4010.2564,4032.8205,4027.1795,4129.7436,4067.6923
4100,4091.7949,4046.6667,4063.5897,4007.6923,4022.5641,4002.0513,4010.7692,4041.5385,4028.7179,4136.9231,4068.2051
4108.7179,4096.4103,4051.7949,4037.9487,4016.4103,4024.1026,4005.641,4015.3846,4057.9487,4035.3846,4147.1795,4080
4102.0513,4094.359,4051.7949,4025.1282,4003.0769,4033.8462,4013.8462,4018.9744,4054.8718,4033.3333,4145.1282,4075.3846
4087.1795,4095.3846,4050.7692,4030.2564,4013.3333,4041.5385,4017.4359,4026.6667,4049.2308,4031.2821,4144.6154,4064.1026
4086.1538,4092.3077,4051.2821,4026.6667,4038.9744,4040,4013.8462,4032.8205,4052.3077,4036.9231,4149.2308,4064.6154
4088.7179,4094.8718,4049.2308,4016.4103,4046.1538,4044.1026,4020,4041.5385,4064.1026,4046.1538,4158.9744,4072.3077
4086.6667,4094.359,4053.8462,4021.0256,4047.1795,4055.8974,4037.4359,4058.4615,4076.4103,4053.3333,4172.3077,4077.4359
4086.1538,4098.4615,4061.0256,4029.7436,4055.3846,4066.1538,4045.641,4061.5385,4074.359,4051.2821,4172.8205,4077.9487
4084.1026,4101.0256,4060,4027.6923,4054.8718,4073.3333,4043.0769,4054.359,4068.2051,4050.2564,4165.1282,4076.9231
4085.1282,4090.2564,4061.0256,4028.2051,4046.6667,4074.8718,4046.6667,4066.1538,4073.8462,4064.6154,4171.7949,4080
4086.6667,4095.3846,4073.3333,4031.7949,4045.641,4072.8205,4055.8974,4083.5897,4081.5385,4078.9744,4182.5641,4083.5897
4078.4615,4098.9744,4077.9487,4015.8974,4041.5385,4072.8205,4051.2821,4075.3846,4080,4078.9744,4174.359,4077.4359
4071.2821,4091.7949,4070.2564,3997.9487,4031.2821,4071.7949,4042.0513,4063.0769,4074.359,4073.3333,4155.3846,4068.2051
4072.8205,4090.2564,4069.7436,4003.0769,4038.4615,4070.7692,4050.7692,4068.2051,4068.7179,4068.2051,4148.7179,4063.5897
4065.641,4088.2051,4067.1795,4007.6923,4055.8974,4070.7692,4058.4615,4066.6667,4056.9231,4061.0256,4151.7949,4056.9231
4057.4359,4094.359,4057.9487,4003.5897,4058.4615,4070.7692,4052.3077,4055.3846,4043.5897,4055.8974,4147.1795,4049.2308
4064.1026,4096.9231,4061.5385,4013.3333,4059.4872,4076.9231,4052.8205,4063.0769,4043.0769,4056.9231,4145.641,4051.7949
4064.1026,4092.3077,4068.7179,4015.3846,4063.0769,4083.5897,4065.641,4075.3846,4049.7436,4056.4103,4151.7949,4052.8205
4056.4103,4093.3333,4064.1026,4001.5385,4058.9744,4089.2308,4070.2564,4069.7436,4047.6923,4051.2821,4154.359,4045.641
4063.0769,4094.8718,4061.5385,4009.7436,4058.4615,4096.9231,4065.1282,4060.5128,4041.5385,4048.7179,4155.8974,4049.7436
4067.6923,4096.9231,4067.6923,4024.6154,4049.2308,4093.3333,4063.0769,4059.4872,4039.4872,4047.6923,4154.359,4052.8205
4057.4359,4089.2308,4067.6923,4011.7949,4041.0256,4076.4103,4063.0769,4064.6154,4038.4615,4048.7179,4146.6667,4044.6154
4054.8718,4086.6667,4066.1538,4000.5128,4055.8974,4069.2308,4062.0513,4072.3077,4041.5385,4056.4103,4146.6667,4047.6923
4066.6667,4102.0513,4069.2308,4014.359,4063.5897,4082.5641,4062.5641,4076.4103,4043.5897,4061.5385,4155.8974,4057.9487
4066.1538,4099.4872,4073.8462,4034.8718,4056.9231,4096.9231,4071.7949,4080.5128,4042.0513,4061.0256,4157.9487,4058.4615
4055.3846,4093.3333,4076.9231,4038.9744,4065.1282,4096.4103,4081.5385,4086.6667,4046.1538,4063.0769,4149.7436,4052.8205
4058.9744,4100,4073.8462,4026.6667,4077.9487,4092.8205,4076.9231,4084.6154,4048.7179,4064.6154,4149.2308,4050.7692
4065.1282,4100,4072.8205,4015.3846,4065.641,4090.2564,4071.7949,4078.4615,4041.5385,4061.5385,4155.3846,4051.2821
4057.4359,4096.9231,4075.8974,4022.5641,4056.9231,4088.7179,4076.4103,4078.4615,4035.8974,4060,4151.2821,4052.3077
4056.4103,4093.8462,4075.8974,4033.8462,4076.4103,4100.5128,4077.9487,4075.3846,4035.3846,4059.4872,4146.6667,4052.3077
4058.9744,4095.3846,4072.3077,4029.7436,4088.2051,4111.7949,4070.7692,4066.1538,4034.359,4055.8974,4145.641,4046.6667
4051.2821,4091.7949,4070.7692,4027.1795,4073.3333,4100.5128,4067.1795,4067.1795,4034.359,4057.4359,4142.5641,4040
4049.7436,4088.2051,4078.4615,4028.7179,4055.3846,4088.2051,4076.9231,4083.5897,4044.6154,4068.7179,4151.2821,4046.1538
4060,4098.9744,4084.6154,4025.1282,4058.9744,4092.8205,4090.2564,4094.359,4060,4078.4615,4166.6667,4062.5641
4066.6667,4093.8462,4083.0769,4034.359,4064.1026,4095.3846,4091.7949,4092.3077,4061.5385,4080,4170.2564,4069.7436
4059.4872,4081.5385,4085.641,4038.4615,4049.2308,4093.8462,4083.5897,4098.9744,4057.4359,4084.6154,4166.1538,4061.0256
4045.1282,4083.0769,4093.8462,4007.6923,4052.8205,4101.5385,4082.5641,4108.7179,4065.1282,4092.3077,4167.6923,4058.9744
4040.5128,4085.1282,4089.2308,3984.6154,4072.3077,4108.7179,4090.2564,4106.1538,4069.2308,4087.1795,4166.1538,4064.6154
4048.7179,4089.2308,4079.4872,4003.5897,4069.2308,4109.2308,4093.3333,4104.6154,4059.4872,4076.4103,4161.5385,4053.8462
4064.1026,4091.7949,4082.0513,4026.1538,4075.3846,4115.8974,4090.2564,4110.2564,4057.9487,4075.3846,4168.2051,4047.6923
4072.3077,4098.9744,4089.7436,4028.2051,4100,4120.5128,4088.7179,4109.2308,4063.5897,4080,4178.9744,4061.0256
4073.3333,4104.1026,4099.4872,4018.4615,4084.6154,4120.5128,4096.9231,4106.6667,4062.5641,4089.7436,4186.6667,4074.359
4064.1026,4096.4103,4105.641,3996.4103,4047.1795,4122.5641,4103.5897,4106.1538,4061.5385,4093.3333,4186.1538,4074.359
4046.6667,4097.4359,4102.5641,3977.9487,4047.6923,4121.5385,4102.5641,4102.0513,4063.5897,4084.6154,4177.4359,4066.6667
4047.6923,4098.4615,4103.0769,3965.641,4066.6667,4122.0513,4097.9487,4102.5641,4065.1282,4082.5641,4177.4359,4068.7179
4055.8974,4101.5385,4106.6667,3947.6923,4062.0513,4121.0256,4093.8462,4106.1538,4062.0513,4085.1282,4182.0513,4069.2308
4049.7436,4100.5128,4098.9744,3935.3846,4042.0513,4107.6923,4093.8462,4104.1026,4054.359,4078.9744,4174.359,4062.5641
4036.9231,4085.641,4088.2051,3932.3077,4035.3846,4098.9744,4093.8462,4097.9487,4048.7179,4071.2821,4167.6923,4051.7949
4034.359,4096.4103,4095.3846,3924.6154,4055.3846,4107.1795,4095.3846,4098.9744,4055.3846,4071.7949,4174.8718,4052.8205
4044.1026,4105.641,4107.6923,3910.2564,4067.1795,4113.8462,4101.0256,4108.7179,4066.6667,4081.0256,4176.9231,4068.2051
4061.5385,4098.4615,4111.7949,3909.2308,4071.7949,4113.3333,4110.2564,4120.5128,4067.1795,4090.7692,4179.4872,4079.4872
4068.2051,4107.1795,4107.6923,3925.1282,4089.7436,4117.9487,4113.3333,4126.1538,4058.4615,4085.1282,4191.7949,4080.5128
4060.5128,4112.8205,4106.1538,3928.7179,4100,4124.6154,4108.2051,4121.0256,4050.2564,4078.4615,4198.4615,4077.4359
4057.9487,4106.6667,4111.2821,3914.8718,4086.6667,4125.1282,4107.6923,4115.8974,4052.3077,4089.7436,4196.9231,4078.4615
4050.7692,4097.9487,4105.1282,3906.6667,4073.8462,4115.3846,4108.7179,4112.3077,4051.7949,4091.2821,4194.359,4070.7692
4032.3077,4091.7949,4088.2051,3899.4872,4061.5385,4108.7179,4104.1026,4104.6154,4043.5897,4072.3077,4188.2051,4055.8974
4024.1026,4094.8718,4085.1282,3883.0769,4045.641,4105.1282,4098.4615,4100.5128,4043.5897,4064.6154,4181.0256,4050.7692
4021.0256,4091.7949,4087.1795,3871.2821,4033.3333,4095.3846,4094.359,4100,4043.0769,4068.7179,4172.3077,4049.2308
4017.9487,4088.7179,4083.0769,3873.8462,4024.6154,4095.3846,4092.3077,4100,4036.4103,4070.2564,4168.2051,4049.7436
4023.0769,4092.8205,4090.7692,3885.641,4037.4359,4106.1538,4092.8205,4105.1282,4043.0769,4074.8718,4176.4103,4056.4103
4034.359,4102.0513,4102.5641,3894.359,4066.6667,4107.6923,4093.8462,4109.2308,4050.7692,4078.9744,4182.0513,4063.5897
4043.0769,4107.1795,4099.4872,3900,4080.5128,4111.2821,4101.5385,4107.6923,4042.5641,4074.8718,4175.8974,4067.1795
4058.4615,4101.5385,4101.5385,3916.9231,4077.9487,4128.2051,4109.7436,4106.6667,4044.6154,4078.9744,4182.0513,4077.4359
4070.2564,4105.641,4118.9744,3931.7949,4075.3846,4136.4103,4113.3333,4107.6923,4058.4615,4097.4359,4196.4103,4089.2308
4071.7949,4110.2564,4126.6667,3928.2051,4085.1282,4138.4615,4114.359,4109.7436,4059.4872,4110.2564,4202.0513,4093.8462
4071.7949,4103.0769,4120.5128,3932.8205,4092.3077,4137.9487,4113.8462,4113.8462,4056.9231,4108.2051,4204.1026,4096.4103
4073.8462,4104.6154,4122.0513,3948.7179,4090.7692,4126.1538,4116.9231,4119.4872,4067.6923,4107.1795,4211.7949,4101.0256
4078.9744,4103.5897,4127.6923,3943.5897,4090.7692,4125.641,4122.0513,4125.641,4077.9487,4117.9487,4221.5385,4110.7692
4072.8205,4101.0256,4118.4615,3926.1538,4081.5385,4136.9231,4123.0769,4135.3846,4077.4359,4121.5385,4218.9744,4106.1538
4062.0513,4101.0256,4109.2308,3920,4070.7692,4137.9487,4119.4872,4138.4615,4074.8718,4112.8205,4212.8205,4091.7949
4073.3333,4102.5641,4120,3926.6667,4093.3333,4136.9231,4118.9744,4135.8974,4078.4615,4114.359,4221.0256,4102.0513
4093.3333,4112.8205,4130.2564,3944.1026,4109.7436,4139.4872,4128.2051,4142.5641,4086.1538,4127.1795,4236.4103,4120
4092.3077,4106.1538,4123.5897,3955.3846,4082.5641,4138.9744,4133.8462,4150.2564,4085.641,4126.6667,4237.9487,4114.8718
4083.0769,4100,4116.9231,3956.9231,4079.4872,4134.8718,4128.7179,4142.0513,4078.9744,4118.4615,4231.2821,4107.6923
4087.6923,4108.7179,4120.5128,3965.641,4116.9231,4134.8718,4122.5641,4132.8205,4075.3846,4120.5128,4230.7692,4113.3333
4095.8974,4110.2564,4125.1282,3975.3846,4131.7949,4145.1282,4127.1795,4132.3077,4078.4615,4125.641,4237.4359,4119.4872
4094.8718,4113.3333,4124.1026,3974.8718,4120.5128,4148.7179,4129.2308,4135.8974,4078.9744,4123.5897,4241.0256,4120
4110.2564,4110.2564,4133.8462,3994.359,4111.2821,4129.2308,4117.9487,4116.4103,4069.2308,4116.9231,4234.8718,4128.2051
4104.6154,4113.3333,4128.7179,4000,4112.3077,4126.1538,4112.3077,4108.7179,4067.6923,4106.1538,4227.1795,4120.5128
4110.2564,4113.3333,4127.1795,3993.8462,4099.4872,4130.7692,4116.4103,4112.8205,4072.8205,4105.641,4225.641,4121.5385
4117.9487,4109.2308,4132.8205,3995.8974,4110.2564,4139.4872,4124.6154,4121.0256,4076.4103,4116.4103,4233.8462,4127.1795
4120,4114.359,4136.4103,4014.8718,4129.7436,4138.4615,4127.1795,4126.6667,4076.4103,4123.5897,4236.4103,4128.2051
4121.0256,4112.8205,4136.9231,4013.3333,4126.1538,4130.2564,4123.5897,4127.1795,4071.2821,4122.0513,4236.4103,4131.7949
4119.4872,4112.8205,4138.4615,3996.9231,4125.641,4130.7692,4123.5897,4130.2564,4066.6667,4118.9744,4239.4872,4135.8974
4123.0769,4116.9231,4139.4872,4006.1538,4140.5128,4138.9744,4128.7179,4131.7949,4071.2821,4122.0513,4240,4137.9487
4132.8205,4115.3846,4142.0513,4025.1282,4134.359,4136.9231,4126.6667,4126.6667,4075.8974,4124.1026,4241.5385,4136.9231
4140,4115.8974,4151.2821,4027.6923,4120,4125.1282,4127.6923,4127.1795,4076.9231,4123.5897,4242.5641,4139.4872
4143.5897,4113.8462,4155.8974,4021.5385,4126.1538,4118.9744,4131.2821,4129.2308,4076.4103,4125.641,4241.5385,4144.6154
4135.8974,4112.8205,4146.1538,4018.4615,4123.0769,4116.4103,4124.6154,4120.5128,4073.3333,4124.1026,4240,4140.5128
4127.1795,4109.7436,4136.4103,4026.1538,4115.3846,4118.9744,4118.4615,4114.8718,4072.8205,4119.4872,4238.9744,4137.4359
4128.2051,4102.5641,4138.4615,4028.2051,4112.3077,4121.0256,4120,4121.5385,4072.8205,4119.4872,4235.3846,4137.9487
4127.6923,4108.7179,4138.4615,4022.5641,4108.2051,4114.359,4120.5128,4124.6154,4066.1538,4120,4229.2308,4136.9231
4132.8205,4112.8205,4136.9231,4031.7949,4127.6923,4112.3077,4118.4615,4121.0256,4066.1538,4122.5641,4235.8974,4139.4872
4134.359,4110.2564,4138.4615,4039.4872,4138.9744,4110.7692,4114.8718,4122.0513,4075.8974,4121.0256,4240,4141.0256
4124.1026,4109.2308,4136.9231,4029.2308,4117.9487,4110.7692,4111.2821,4122.5641,4076.4103,4113.3333,4233.8462,4133.8462
4126.6667,4111.2821,4137.4359,4030.2564,4128.7179,4126.1538,4116.4103,4122.0513,4073.8462,4115.8974,4237.9487,4137.9487
4143.5897,4117.4359,4140,4043.5897,4158.9744,4140.5128,4124.1026,4127.6923,4079.4872,4125.1282,4250.7692,4151.2821
4143.5897,4112.3077,4139.4872,4045.641,4152.8205,4141.5385,4126.6667,4132.3077,4082.0513,4124.6154,4252.8205,4151.2821
4135.8974,4113.3333,4140,4047.6923,4135.8974,4141.5385,4129.2308,4129.7436,4078.4615,4121.5385,4248.7179,4147.1795
4137.4359,4116.4103,4142.5641,4049.7436,4118.9744,4130.2564,4125.1282,4122.5641,4068.2051,4121.5385,4243.5897,4144.1026
4139.4872,4105.641,4151.2821,4049.2308,4113.8462,4117.4359,4118.9744,4120.5128,4060,4126.1538,4241.0256,4144.6154
4141.5385,4111.2821,4164.1026,4052.8205,4136.4103,4120.5128,4122.5641,4128.7179,4064.6154,4137.9487,4245.1282,4150.7692
4140,4114.359,4162.0513,4055.3846,4135.3846,4121.0256,4122.5641,4130.2564,4067.1795,4142.0513,4242.5641,4149.2308
4132.8205,4106.1538,4149.2308,4050.7692,4106.1538,4111.2821,4119.4872,4123.5897,4059.4872,4133.8462,4230.7692,4137.9487
4135.3846,4110.7692,4149.7436,4052.3077,4110.7692,4115.8974,4122.5641,4126.6667,4063.5897,4134.359,4228.2051,4136.4103
4144.6154,4112.3077,4158.4615,4062.0513,4139.4872,4133.8462,4126.6667,4133.8462,4071.7949,4144.1026,4236.9231,4143.0769
4142.0513,4112.8205,4155.8974,4060,4137.9487,4135.3846,4125.1282,4130.7692,4062.5641,4138.4615,4237.4359,4137.9487
4134.8718,4110.2564,4145.1282,4053.3333,4125.641,4126.6667,4122.0513,4129.2308,4061.5385,4124.6154,4234.359,4133.3333
4135.8974,4107.1795,4145.1282,4057.4359,4129.2308,4125.641,4123.0769,4137.4359,4073.3333,4127.6923,4240.5128,4141.0256
4137.9487,4112.3077,4152.8205,4057.4359,4124.6154,4129.2308,4124.6154,4138.4615,4070.7692,4137.9487,4243.5897,4144.6154
4142.5641,4109.2308,4153.8462,4053.3333,4113.3333,4125.1282,4120.5128,4134.359,4065.1282,4138.4615,4238.9744,4140
4150.7692,4111.7949,4158.4615,4067.1795,4124.6154,4118.9744,4115.8974,4136.4103,4072.8205,4137.9487,4234.359,4143.5897
4156.9231,4118.4615,4170.7692,4083.0769,4145.641,4123.5897,4117.9487,4137.4359,4076.9231,4142.0513,4234.8718,4155.3846
4163.5897,4114.8718,4169.7436,4077.9487,4145.1282,4126.1538,4121.0256,4136.4103,4074.8718,4145.641,4240,4157.9487
4159.4872,4112.3077,4158.9744,4074.8718,4127.6923,4122.0513,4124.1026,4140,4075.8974,4148.7179,4241.5385,4151.7949
4144.6154,4106.1538,4153.8462,4074.8718,4118.4615,4118.9744,4118.9744,4134.8718,4066.6667,4140.5128,4227.6923,4143.0769
4139.4872,4107.1795,4153.3333,4066.6667,4111.7949,4114.359,4111.2821,4125.641,4057.4359,4128.2051,4213.3333,4136.9231
4146.1538,4108.2051,4150.2564,4064.1026,4116.9231,4117.9487,4116.4103,4126.1538,4060,4127.1795,4217.4359,4136.9231
4140.5128,4105.1282,4143.0769,4065.641,4137.9487,4132.3077,4123.0769,4124.1026,4056.4103,4124.6154,4217.9487,4136.4103
4132.3077,4111.2821,4143.5897,4074.8718,4144.1026,4134.359,4123.5897,4120.5128,4052.3077,4124.6154,4211.2821,4132.8205
4145.641,4109.2308,4155.3846,4092.3077,4136.4103,4123.5897,4123.0769,4126.6667,4060.5128,4135.8974,4223.5897,4139.4872
4153.3333,4109.2308,4156.9231,4090.2564,4131.7949,4119.4872,4117.4359,4128.2051,4065.641,4137.9487,4231.7949,4143.0769
4143.5897,4113.3333,4147.6923,4072.8205,4122.0513,4123.5897,4111.7949,4120,4061.0256,4133.3333,4222.0513,4137.9487
4141.0256,4107.6923,4149.2308,4075.8974,4110.2564,4123.5897,4114.8718,4119.4872,4064.1026,4135.8974,4221.0256,4141.5385
4148.7179,4111.2821,4154.8718,4083.0769,4120,4121.5385,4118.9744,4129.2308,4067.6923,4138.9744,4230.2564,4146.6667
4155.3846,4115.3846,4154.359,4082.5641,4134.359,4125.1282,4118.9744,4138.4615,4069.2308,4137.9487,4233.8462,4148.2051
4156.4103,4114.359,4156.9231,4094.359,4140.5128,4124.6154,4120,4140,4071.2821,4142.5641,4230.7692,4152.8205
4154.8718,4113.3333,4159.4872,4101.0256,4136.4103,4121.5385,4120,4135.8974,4068.7179,4144.6154,4228.7179,4153.3333
4153.8462,4109.7436,4156.9231,4098.4615,4119.4872,4128.7179,4120,4135.8974,4066.1538,4142.5641,4229.2308,4154.359
4155.8974,4114.359,4157.4359,4103.5897,4123.0769,4138.4615,4122.5641,4133.3333,4064.6154,4134.8718,4225.1282,4154.359
4153.3333,4111.7949,4154.8718,4107.6923,4146.1538,4130.2564,4120.5128,4120,4058.4615,4121.0256,4214.8718,4145.1282
4149.2308,4109.7436,4146.1538,4104.1026,4135.3846,4123.5897,4120.5128,4122.0513,4055.3846,4123.0769,4214.8718,4141.5385
4149.7436,4111.2821,4141.5385,4107.1795,4116.9231,4135.3846,4125.1282,4136.9231,4061.5385,4134.359,4222.0513,4150.2564
4145.641,4103.0769,4140.5128,4098.9744,4131.2821,4139.4872,4120.5128,4137.9487,4061.0256,4132.3077,4218.9744,4151.7949
4142.5641,4106.1538,4140,4085.1282,4136.4103,4133.3333,4118.4615,4132.3077,4056.4103,4127.6923,4215.8974,4147.6923
4152.3077,4108.2051,4141.5385,4095.8974,4128.7179,4137.9487,4130.7692,4137.9487,4063.0769,4138.4615,4221.5385,4154.359
4155.3846,4104.1026,4141.5385,4110.2564,4130.7692,4142.0513,4134.8718,4143.5897,4067.6923,4145.641,4218.4615,4155.8974
4141.0256,4106.1538,4141.5385,4104.1026,4127.1795,4138.4615,4124.6154,4138.4615,4063.5897,4137.4359,4204.6154,4144.6154
4141.5385,4105.641,4148.2051,4102.5641,4132.3077,4140,4126.1538,4137.4359,4068.7179,4140.5128,4209.7436,4148.2051
4155.8974,4108.7179,4154.8718,4115.3846,4135.8974,4140,4133.8462,4144.6154,4081.5385,4152.8205,4227.1795,4163.0769
4160,4102.5641,4154.359,4120.5128,4123.5897,4137.4359,4126.6667,4139.4872,4081.0256,4150.7692,4226.6667,4162.5641
4163.0769,4091.7949,4156.4103,4126.1538,4137.4359,4138.4615,4116.4103,4125.1282,4074.359,4146.1538,4220.5128,4160
4166.6667,4085.1282,4156.4103,4132.3077,4155.8974,4132.8205,4118.4615,4120.5128,4075.3846,4150.2564,4223.0769,4166.1538
4166.1538,4073.3333,4152.8205,4127.6923,4138.4615,4128.7179,4120,4124.1026,4076.4103,4149.7436,4223.5897,4166.1538
4162.5641,4079.4872,4150.7692,4128.2051,4135.8974,4135.8974,4115.8974,4122.5641,4075.3846,4140.5128,4216.4103,4153.8462
4157.9487,4092.3077,4149.2308,4132.8205,4151.2821,4141.5385,4112.3077,4122.0513,4077.4359,4137.4359,4212.8205,4148.2051
4156.4103,4095.3846,4150.7692,4133.8462,4138.4615,4136.9231,4116.9231,4126.6667,4080,4143.0769,4211.7949,4156.4103
4160,4106.6667,4156.9231,4134.8718,4129.2308,4130.7692,4126.1538,4130.2564,4078.9744,4146.6667,4214.359,4162.0513
4158.9744,4109.2308,4151.7949,4131.2821,4145.641,4132.3077,4122.0513,4127.6923,4078.4615,4142.0513,4222.0513,4157.9487
4149.7436,4110.7692,4143.0769,4124.1026,4140,4132.3077,4110.2564,4121.5385,4078.4615,4134.8718,4211.7949,4148.7179
4151.7949,4117.9487,4147.1795,4130.7692,4116.9231,4121.0256,4104.6154,4121.5385,4074.359,4135.8974,4200,4151.2821
4162.5641,4118.9744,4154.8718,4141.0256,4116.4103,4110.7692,4104.6154,4126.1538,4077.4359,4143.5897,4208.7179,4161.0256
4166.1538,4122.5641,4160,4137.4359,4140.5128,4115.8974,4106.6667,4128.2051,4090.7692,4152.3077,4219.4872,4163.5897
4166.1538,4122.5641,4164.6154,4134.8718,4140.5128,4124.6154,4110.2564,4127.1795,4095.3846,4156.4103,4224.1026,4167.1795
4164.1026,4121.5385,4160,4133.8462,4115.3846,4124.6154,4110.7692,4118.4615,4082.0513,4146.1538,4222.0513,4163.0769
4162.0513,4121.0256,4152.8205,4135.8974,4125.641,4125.641,4107.1795,4112.3077,4072.3077,4136.9231,4216.9231,4155.8974
4164.6154,4121.5385,4156.4103,4142.0513,4145.1282,4124.1026,4103.5897,4117.9487,4076.4103,4141.0256,4215.3846,4155.3846
4162.0513,4125.641,4158.9744,4140.5128,4141.0256,4119.4872,4108.2051,4125.1282,4077.4359,4137.9487,4214.359,4149.7436
4155.8974,4118.9744,4153.8462,4136.4103,4143.0769,4122.5641,4115.3846,4124.1026,4074.359,4128.2051,4212.3077,4142.5641
4155.8974,4119.4872,4153.8462,4139.4872,4138.4615,4125.1282,4114.8718,4121.5385,4073.8462,4130.2564,4212.3077,4144.6154
4158.9744,4123.5897,4154.359,4139.4872,4128.7179,4126.1538,4115.8974,4123.0769,4072.3077,4135.3846,4214.8718,4144.6154
4150.7692,4112.8205,4147.1795,4130.2564,4140.5128,4125.1282,4120.5128,4122.5641,4062.0513,4126.1538,4207.6923,4134.8718
4133.8462,4112.8205,4134.359,4120,4132.3077,4114.359,4117.4359,4114.359,4046.6667,4110.7692,4191.7949,4122.0513
4132.3077,4115.8974,4132.3077,4124.6154,4109.7436,4109.2308,4114.8718,4108.2051,4046.6667,4111.7949,4191.2821,4123.5897
4146.6667,4118.9744,4148.7179,4135.3846,4134.359,4118.9744,4124.1026,4117.4359,4062.0513,4125.641,4210.2564,4142.5641
4154.359,4120,4153.3333,4137.9487,4151.7949,4125.641,4126.6667,4123.5897,4065.1282,4126.6667,4217.4359,4152.3077
4150.2564,4113.8462,4141.0256,4135.8974,4129.7436,4123.0769,4116.4103,4119.4872,4058.4615,4120,4204.1026,4144.6154
4150.7692,4123.5897,4137.9487,4138.4615,4132.3077,4122.0513,4113.8462,4121.5385,4062.0513,4123.0769,4201.0256,4148.2051
4156.9231,4123.5897,4143.5897,4147.1795,4142.0513,4121.0256,4115.8974,4125.641,4065.1282,4126.6667,4209.2308,4155.8974
4153.3333,4113.8462,4137.9487,4148.7179,4125.1282,4119.4872,4118.4615,4124.1026,4058.9744,4121.5385,4202.5641,4144.1026
3993.3333,4313.8462,4408.2051,4110.2564,4137.9487,3775.8974,4074.8718,3811.2821,3531.2821,3850.2564,3611.7949,4344.1026
3995.3846,4325.1282,4401.5385,4091.7949,4159.4872,3795.8974,4073.8462,3813.8462,3518.9744,3847.1795,3603.5897,4342.0513
3952.8205,4301.5385,4402.5641,4018.4615,4152.8205,3804.6154,4067.6923,3818.9744,3527.6923,3843.0769,3595.8974,4315.8974
3947.6923,4296.9231,4424.6154,3850.7692,4133.3333,3795.8974,4060.5128,3816.4103,3549.2308,3848.2051,3596.9231,4298.9744
4030.7692,4334.8718,4416.9231,3734.359,4157.9487,3809.2308,4064.6154,3816.9231,3563.5897,3864.6154,3610.2564,4322.0513
4026.1538,4311.2821,4389.2308,3685.641,4118.4615,3805.641,4052.8205,3813.3333,3566.1538,3859.4872,3611.2821,4311.2821
3946.6667,4275.8974,4398.9744,3646.6667,4028.7179,3772.3077,4029.2308,3804.6154,3561.5385,3846.1538,3597.9487,4275.8974
3952.8205,4286.6667,4400,3648.2051,4032.8205,3769.2308,4017.9487,3794.8718,3554.359,3844.6154,3590.7692,4272.3077
3966.6667,4284.1026,4371.7949,3614.359,4056.4103,3778.4615,4006.1538,3781.0256,3541.0256,3834.8718,3577.9487,4247.1795
3923.5897,4265.641,4376.4103,3568.7179,4001.5385,3757.4359,3988.7179,3773.3333,3525.1282,3822.5641,3564.6154,4195.3846
3906.1538,4253.8462,4399.4872,3607.6923,3981.0256,3748.2051,3988.7179,3783.5897,3520.5128,3831.2821,3572.8205,4175.3846
3923.5897,4258.4615,4390.7692,3578.9744,3986.1538,3762.0513,3995.8974,3794.8718,3523.0769,3840.5128,3573.8462,4161.5385
3938.9744,4266.1538,4383.5897,3396.4103,3932.8205,3760.5128,3984.1026,3785.641,3525.641,3842.0513,3562.0513,4147.1795
3947.1795,4252.3077,4392.3077,3285.1282,3890.2564,3752.3077,3976.4103,3776.9231,3529.7436,3847.1795,3568.7179,4147.6923
3920,4224.6154,4377.9487,3302.5641,3889.7436,3752.8205,3975.8974,3778.4615,3528.7179,3838.4615,3573.3333,4125.1282
3884.1026,4212.8205,4355.8974,3301.5385,3863.5897,3758.9744,3962.0513,3771.2821,3528.7179,3821.0256,3559.4872,4086.6667
3915.3846,4243.5897,4353.3333,3293.8462,3825.1282,3765.1282,3956.9231,3764.1026,3536.4103,3823.0769,3566.1538,4100.5128
3951.7949,4257.4359,4353.8462,3320,3808.2051,3762.0513,3958.9744,3770.2564,3537.4359,3835.3846,3593.3333,4135.8974
3917.4359,4216.4103,4354.8718,3338.4615,3800,3758.9744,3948.7179,3769.2308,3526.1538,3832.3077,3591.7949,4120.5128
3907.1795,4210.7692,4356.9231,3317.4359,3797.9487,3760,3937.9487,3755.8974,3510.7692,3822.5641,3568.2051,4098.4615
3965.1282,4247.6923,4337.4359,3268.7179,3805.641,3764.6154,3942.0513,3760,3500,3822.5641,3571.2821,4106.1538
3960,4241.0256,4310.7692,3237.9487,3773.3333,3761.5385,3940,3766.1538,3491.2821,3817.9487,3578.9744,4084.6154
3897.9487,4201.0256,4308.2051,3244.1026,3728.7179,3761.0256,3935.8974,3763.0769,3486.1538,3814.359,3565.641,4048.2051
3900,4199.4872,4311.2821,3266.1538,3749.7436,3770.7692,3941.5385,3770.2564,3488.2051,3822.0513,3568.7179,4050.2564
3921.0256,4210.7692,4289.7436,3277.4359,3763.5897,3765.1282,3929.2308,3767.6923,3489.7436,3820,3584.1026,4045.1282
3909.7436,4183.0769,4269.7436,3275.8974,3723.0769,3749.7436,3905.641,3754.8718,3489.7436,3813.3333,3582.5641,4025.1282
3910.2564,4168.7179,4278.9744,3293.3333,3690.2564,3745.641,3908.2051,3764.1026,3499.4872,3825.641,3579.4872,4030.2564
3922.0513,4181.5385,4277.9487,3333.3333,3690.2564,3748.2051,3916.4103,3769.2308,3509.7436,3835.8974,3585.641,4033.3333
3925.1282,4174.8718,4248.7179,3335.3846,3685.641,3745.1282,3897.9487,3749.7436,3505.641,3823.5897,3588.7179,4018.9744
3929.2308,4168.2051,4238.4615,3301.0256,3683.0769,3750.7692,3890.7692,3749.2308,3506.1538,3823.5897,3593.8462,4020.5128
3928.2051,4162.5641,4241.5385,3282.0513,3685.641,3758.9744,3905.641,3764.1026,3514.8718,3835.8974,3605.641,4018.4615
3917.4359,4154.359,4215.3846,3274.8718,3636.4103,3748.2051,3897.4359,3757.4359,3506.1538,3822.5641,3596.4103,4002.0513
3938.4615,4159.4872,4184.6154,3267.1795,3611.2821,3755.3846,3881.0256,3749.2308,3504.1026,3810.7692,3590.2564,4009.2308
3962.5641,4157.4359,4177.9487,3249.2308,3666.6667,3777.4359,3889.2308,3757.9487,3519.4872,3821.5385,3613.8462,4010.7692
3933.3333,4157.4359,4175.8974,3224.6154,3687.6923,3766.1538,3900.5128,3761.5385,3517.9487,3820,3620.5128,3968.7179
3931.2821,4170.2564,4171.7949,3221.5385,3625.641,3745.641,3889.2308,3754.8718,3509.7436,3812.8205,3610.2564,3960
3968.2051,4181.0256,4167.6923,3225.641,3610.2564,3763.0769,3879.4872,3752.3077,3523.0769,3824.1026,3626.6667,3985.641
3937.4359,4161.0256,4158.9744,3218.4615,3641.5385,3774.8718,3883.5897,3757.9487,3532.3077,3831.7949,3643.0769,3965.1282
3880,4126.1538,4156.4103,3212.8205,3611.2821,3756.9231,3882.0513,3761.0256,3523.0769,3829.7436,3626.6667,3933.3333
3925.641,4161.0256,4156.9231,3193.3333,3597.9487,3765.641,3877.9487,3762.0513,3529.2308,3842.0513,3617.9487,3958.9744
3971.7949,4182.0513,4143.0769,3183.5897,3627.6923,3788.2051,3878.9744,3764.6154,3546.6667,3854.8718,3635.3846,3980
3907.1795,4130.7692,4140,3195.3846,3608.7179,3778.9744,3874.359,3759.4872,3541.5385,3847.6923,3640.5128,3951.2821
3912.8205,4138.4615,4149.7436,3202.0513,3608.7179,3776.9231,3868.2051,3757.9487,3541.5385,3847.6923,3639.4872,3956.9231
3978.9744,4165.1282,4138.9744,3224.6154,3653.8462,3785.641,3866.1538,3761.5385,3555.3846,3855.3846,3644.1026,3978.4615
3916.4103,4129.2308,4124.1026,3232.3077,3624.6154,3762.0513,3860.5128,3752.3077,3547.1795,3843.0769,3627.1795,3939.4872
3881.5385,4121.5385,4124.6154,3198.4615,3605.1282,3760.5128,3865.641,3757.9487,3543.0769,3841.5385,3621.5385,3924.1026
3966.6667,4164.6154,4128.7179,3204.6154,3668.7179,3800.5128,3878.4615,3782.0513,3568.2051,3866.1538,3649.7436,3970.2564
3968.7179,4156.4103,4132.3077,3236.4103,3683.0769,3801.0256,3871.7949,3778.4615,3577.4359,3867.1795,3659.4872,3969.2308
3896.9231,4113.8462,4080.5128,3208.7179,3642.0513,3770.2564,3856.9231,3761.0256,3567.6923,3846.6667,3648.7179,3927.6923
3903.0769,4129.2308,3954.359,3179.4872,3644.6154,3773.8462,3861.0256,3767.6923,3578.9744,3850.2564,3659.4872,3926.6667
3924.6154,4141.5385,3876.9231,3196.9231,3684.1026,3795.8974,3871.7949,3776.4103,3592.3077,3861.5385,3676.4103,3935.8974
3905.641,4120.5128,3896.9231,3201.0256,3672.3077,3793.3333,3863.0769,3765.1282,3585.1282,3854.8718,3672.8205,3926.6667
3914.8718,4122.0513,3914.359,3209.7436,3625.1282,3779.4872,3849.7436,3759.4872,3585.1282,3855.8974,3672.8205,3934.8718
3923.0769,4116.9231,3898.9744,3196.4103,3624.6154,3782.5641,3848.2051,3765.1282,3591.2821,3863.5897,3684.6154,3945.1282
3926.6667,4117.4359,3904.1026,3140,3658.4615,3792.3077,3857.4359,3767.6923,3590.7692,3862.5641,3696.9231,3952.3077
3975.8974,4136.9231,3912.8205,3146.6667,3653.8462,3790.2564,3860.5128,3764.6154,3595.8974,3869.7436,3710.2564,3966.6667
3998.9744,4132.8205,3909.7436,3211.7949,3625.641,3792.3077,3852.8205,3757.4359,3604.1026,3877.4359,3715.3846,3959.4872
3983.0769,4130.2564,3917.9487,3217.9487,3638.4615,3797.4359,3845.641,3756.9231,3610.2564,3877.9487,3714.359,3964.6154
4006.1538,4142.5641,3917.9487,3174.359,3641.0256,3790.2564,3845.641,3763.0769,3618.9744,3884.1026,3721.0256,3998.4615
4007.1795,4129.2308,3904.1026,3169.2308,3609.2308,3785.1282,3847.1795,3760,3617.9487,3878.4615,3715.3846,3977.9487
3950.2564,4101.0256,3913.3333,3197.4359,3627.6923,3797.4359,3846.6667,3754.8718,3615.8974,3867.1795,3699.4872,3935.8974
3964.6154,4117.4359,3935.8974,3209.2308,3685.1282,3806.1538,3847.1795,3764.6154,3629.7436,3871.7949,3704.1026,3956.9231
4011.7949,4140.5128,3942.5641,3180,3690.7692,3795.8974,3847.1795,3771.7949,3631.2821,3869.7436,3710.7692,3953.3333
3981.5385,4117.9487,3970.7692,3143.5897,3649.7436,3795.8974,3849.2308,3766.6667,3617.9487,3858.4615,3703.0769,3894.359
3973.3333,4121.5385,4012.8205,3141.0256,3683.0769,3814.359,3862.0513,3771.2821,3631.2821,3870.2564,3709.2308,3887.6923
3972.8205,4123.5897,4007.6923,3129.2308,3743.0769,3817.4359,3867.6923,3776.9231,3647.6923,3871.7949,3717.9487,3877.4359
3887.1795,4080,3985.641,3104.6154,3697.9487,3798.9744,3852.3077,3765.641,3626.1538,3842.0513,3701.0256,3797.9487
3881.5385,4102.0513,3990.7692,3118.9744,3668.7179,3801.5385,3851.7949,3769.7436,3616.9231,3836.9231,3690.7692,3782.5641
3952.3077,4132.8205,3991.2821,3137.4359,3731.7949,3823.0769,3866.6667,3788.2051,3636.4103,3853.8462,3703.5897,3826.1538
3901.0256,4087.1795,3980.5128,3109.7436,3747.1795,3825.1282,3863.5897,3786.1538,3639.4872,3847.1795,3704.1026,3798.4615
3871.2821,4091.7949,3985.641,3099.4872,3726.1538,3821.5385,3863.5897,3786.6667,3635.8974,3849.2308,3698.4615,3780
3960.5128,4132.3077,3988.7179,3131.2821,3763.0769,3829.2308,3876.9231,3804.6154,3650.2564,3870.7692,3719.4872,3823.5897
3930.7692,4091.2821,3975.3846,3125.641,3751.2821,3821.0256,3871.2821,3797.9487,3650.7692,3855.8974,3727.1795,3798.9744
3854.359,4067.6923,3969.2308,3085.641,3716.4103,3817.4359,3860,3783.0769,3648.2051,3836.4103,3714.8718,3761.5385
3927.1795,4127.1795,3975.3846,3087.1795,3777.9487,3838.9744,3876.4103,3805.1282,3675.8974,3866.1538,3735.3846,3809.7436
3936.9231,4123.5897,3976.4103,3111.2821,3791.2821,3836.9231,3884.6154,3820,3686.1538,3879.4872,3754.8718,3823.5897
3855.8974,4069.2308,3969.2308,3095.3846,3737.4359,3818.4615,3873.8462,3804.1026,3667.1795,3855.8974,3734.8718,3783.5897
3910.2564,4101.5385,3962.0513,3091.7949,3776.4103,3835.3846,3877.9487,3805.1282,3673.3333,3859.4872,3734.359,3794.359
3954.8718,4115.3846,3958.9744,3127.6923,3816.4103,3857.9487,3885.1282,3820.5128,3695.3846,3874.359,3752.8205,3804.6154
3880.5128,4062.0513,3956.9231,3123.0769,3769.2308,3848.7179,3875.3846,3814.8718,3694.359,3863.5897,3723.5897,3775.8974
3883.0769,4073.8462,3951.2821,3089.7436,3773.8462,3841.0256,3875.8974,3811.2821,3690.2564,3866.1538,3685.641,3785.1282
3941.5385,4105.641,3942.0513,3162.5641,3831.7949,3851.7949,3888.7179,3828.7179,3698.9744,3882.0513,3698.4615,3809.2308
3901.5385,4079.4872,3942.5641,3178.9744,3816.9231,3860,3889.2308,3832.3077,3699.4872,3871.2821,3705.1282,3785.641
3874.359,4066.1538,3941.5385,2925.641,3788.7179,3862.5641,3875.8974,3815.8974,3698.4615,3856.9231,3682.5641,3773.3333
3920,4083.0769,3928.2051,2692.8205,3830.7692,3866.1538,3874.8718,3815.8974,3712.3077,3866.6667,3691.7949,3800.5128
3915.8974,4078.9744,3925.1282,2716.9231,3855.8974,3867.1795,3888.7179,3833.8462,3728.7179,3876.4103,3721.5385,3800.5128
3901.0256,4067.6923,3937.9487,2769.7436,3833.3333,3873.3333,3893.8462,3833.8462,3731.2821,3877.4359,3723.0769,3788.2051
3920,4074.8718,3945.1282,2730.7692,3836.9231,3884.6154,3891.7949,3830.7692,3734.8718,3887.1795,3720.5128,3807.6923
3914.359,4066.1538,3938.9744,2739.4872,3870.7692,3885.1282,3894.8718,3844.1026,3748.2051,3897.4359,3731.7949,3806.6667
3919.4872,4065.641,3934.359,2783.5897,3886.1538,3882.5641,3896.4103,3851.2821,3760,3903.0769,3738.9744,3792.8205
3942.5641,4090.2564,3929.2308,2786.6667,3871.2821,3885.1282,3894.359,3847.6923,3764.1026,3908.7179,3742.0513,3808.2051
3923.5897,4074.8718,3926.1538,2802.0513,3863.0769,3890.2564,3896.4103,3853.8462,3770.7692,3911.7949,3750.7692,3812.8205
3907.1795,4061.0256,3928.2051,2852.8205,3873.8462,3892.8205,3898.4615,3858.9744,3780,3909.2308,3752.8205,3799.4872
3935.8974,4083.5897,3924.1026,2905.641,3881.5385,3895.3846,3895.8974,3858.4615,3786.1538,3909.7436,3756.4103,3808.2051
3922.0513,4072.3077,3907.1795,2918.9744,3866.1538,3894.359,3894.8718,3856.4103,3783.5897,3909.2308,3762.5641,3798.4615
3895.3846,4065.1282,3902.5641,2911.2821,3854.359,3891.7949,3897.9487,3853.8462,3784.1026,3909.2308,3754.359,3775.3846
3920,4072.8205,3905.1282,2899.4872,3862.0513,3896.9231,3893.8462,3850.2564,3796.9231,3911.7949,3749.7436,3790.2564
3885.1282,4042.0513,3893.3333,2913.8462,3834.8718,3889.2308,3878.4615,3842.0513,3795.3846,3896.4103,3750.2564,3777.4359
3855.8974,4049.7436,3891.7949,2943.5897,3826.6667,3885.641,3874.8718,3843.0769,3791.2821,3893.8462,3761.0256,3761.5385
3923.5897,4091.7949,3894.359,2945.1282,3874.359,3902.0513,3884.1026,3851.7949,3810.7692,3914.8718,3783.0769,3798.4615
3926.6667,4067.6923,3878.9744,2937.4359,3849.7436,3899.4872,3875.8974,3842.5641,3818.4615,3909.2308,3782.5641,3793.8462
3880.5128,4044.6154,3889.2308,2967.1795,3790.7692,3886.6667,3869.7436,3838.9744,3816.9231,3898.4615,3788.2051,3775.3846
3948.2051,4098.4615,3924.1026,3020.5128,3826.6667,3909.7436,3887.6923,3861.0256,3840,3929.2308,3825.641,3829.2308
3994.8718,4108.7179,3922.5641,3036.9231,3861.0256,3931.7949,3893.8462,3869.7436,3858.9744,3944.1026,3841.0256,3848.7179
3922.5641,4053.8462,3897.4359,3029.7436,3805.641,3907.6923,3872.8205,3854.359,3844.6154,3916.4103,3823.0769,3799.4872
3917.4359,4072.8205,3894.8718,3048.7179,3794.8718,3890.2564,3865.1282,3855.3846,3837.4359,3912.8205,3823.0769,3803.0769
3968.7179,4100.5128,3898.4615,3084.6154,3827.6923,3899.4872,3876.4103,3868.2051,3852.8205,3927.1795,3838.9744,3830.7692
3919.4872,4063.0769,3896.4103,3089.2308,3787.6923,3897.4359,3881.0256,3869.7436,3858.4615,3921.0256,3840,3802.0513
3864.6154,4054.359,3893.8462,3063.5897,3758.4615,3896.9231,3880,3871.2821,3853.8462,3912.8205,3836.9231,3778.4615
3903.0769,4074.359,3883.0769,3048.2051,3787.6923,3908.7179,3878.4615,3877.4359,3856.4103,3913.3333,3836.4103,3790.7692
3917.4359,4065.641,3878.4615,3070.2564,3794.8718,3910.2564,3878.9744,3878.4615,3863.0769,3910.2564,3835.3846,3786.1538
3887.1795,4056.9231,3876.9231,3091.2821,3785.641,3908.7179,3879.4872,3871.7949,3864.6154,3906.6667,3835.3846,3769.7436
3902.0513,4068.2051,3868.7179,3083.5897,3795.8974,3915.8974,3874.8718,3863.0769,3864.1026,3903.5897,3833.3333,3771.2821
3878.9744,4053.3333,3863.0769,3092.8205,3776.9231,3916.9231,3868.7179,3848.7179,3860.5128,3891.2821,3820,3763.0769
3842.0513,4050.2564,3864.6154,3111.2821,3763.0769,3918.4615,3873.3333,3849.2308,3867.1795,3893.8462,3825.1282,3755.3846
3892.3077,4092.3077,3862.0513,3109.2308,3795.8974,3927.1795,3883.0769,3867.1795,3886.6667,3911.2821,3849.7436,3773.3333
3916.9231,4087.1795,3859.4872,3118.9744,3793.3333,3927.1795,3886.1538,3873.3333,3888.2051,3905.641,3843.5897,3775.8974
3881.5385,4055.8974,3866.1538,3158.4615,3776.4103,3926.6667,3888.2051,3877.9487,3880,3898.9744,3832.8205,3765.1282
3887.1795,4078.9744,3875.8974,3189.2308,3794.8718,3929.7436,3897.4359,3897.9487,3894.8718,3920,3857.9487,3776.9231
3898.9744,4077.9487,3883.0769,3191.2821,3795.8974,3926.6667,3902.5641,3902.5641,3903.0769,3931.7949,3865.1282,3789.7436
3881.5385,4062.5641,3877.4359,3184.1026,3790.7692,3932.8205,3901.0256,3891.7949,3891.2821,3921.5385,3845.1282,3779.4872
3877.9487,4069.2308,3867.6923,3201.5385,3815.8974,3942.5641,3898.4615,3891.7949,3897.9487,3922.5641,3853.8462,3768.2051
3861.0256,4044.1026,3877.4359,3223.0769,3796.4103,3929.2308,3888.2051,3884.6154,3910.2564,3927.6923,3863.5897,3773.8462
3866.6667,4055.3846,3881.5385,3197.4359,3789.7436,3923.5897,3888.7179,3878.4615,3908.7179,3931.7949,3860,3789.7436
3912.3077,4092.3077,3869.7436,3201.5385,3855.3846,3943.5897,3902.0513,3893.8462,3917.4359,3944.6154,3881.5385,3800
3894.359,4065.641,3871.7949,3251.7949,3842.5641,3941.0256,3902.5641,3899.4872,3927.1795,3942.0513,3894.359,3795.3846
3869.2308,4042.5641,3881.5385,3253.8462,3795.3846,3928.2051,3891.7949,3893.8462,3927.1795,3936.9231,3889.2308,3797.9487
3913.3333,4071.7949,3867.1795,3232.8205,3846.1538,3944.1026,3894.359,3898.4615,3931.2821,3945.641,3898.4615,3804.1026
3916.4103,4082.0513,3848.2051,3274.359,3883.0769,3954.8718,3898.4615,3893.8462,3926.6667,3933.8462,3889.7436,3787.1795
3855.3846,4053.3333,3847.1795,3308.7179,3841.0256,3945.641,3880,3873.3333,3907.1795,3906.6667,3862.0513,3763.0769
3862.5641,4067.1795,3844.6154,3275.8974,3848.2051,3947.1795,3871.2821,3873.3333,3910.2564,3911.7949,3869.2308,3765.641
3904.1026,4092.3077,3834.8718,3266.6667,3904.6154,3950.2564,3885.641,3888.7179,3929.2308,3928.7179,3893.3333,3775.8974
3880,4065.1282,3834.8718,3319.4872,3883.5897,3940.5128,3894.359,3889.2308,3927.1795,3928.7179,3890.2564,3771.7949
3867.6923,4060.5128,3853.3333,3356.4103,3838.4615,3935.8974,3891.7949,3888.2051,3924.1026,3933.8462,3881.0256,3776.9231
3905.1282,4088.2051,3868.7179,3339.4872,3867.6923,3945.1282,3893.8462,3904.6154,3939.4872,3950.2564,3899.4872,3793.3333
3903.5897,4085.641,3858.9744,3327.1795,3912.3077,3947.6923,3897.9487,3910.7692,3946.1538,3948.2051,3913.8462,3786.6667
3870.7692,4065.1282,3851.2821,3340,3893.3333,3942.5641,3893.3333,3896.9231,3939.4872,3933.3333,3905.641,3773.3333
3884.1026,4065.1282,3863.0769,3342.0513,3871.2821,3947.1795,3891.2821,3891.7949,3940,3933.8462,3908.2051,3781.0256
3906.6667,4079.4872,3867.1795,3353.8462,3902.0513,3958.9744,3897.4359,3897.4359,3945.1282,3941.0256,3924.6154,3786.1538
3904.6154,4074.8718,3858.4615,3372.8205,3923.5897,3960.5128,3898.4615,3896.9231,3942.0513,3941.0256,3929.2308,3786.6667
3908.2051,4064.6154,3860,3366.6667,3910.2564,3954.359,3897.4359,3897.4359,3940.5128,3939.4872,3928.2051,3796.9231
3900.5128,4048.2051,3870.2564,3375.3846,3898.9744,3953.3333,3900,3909.7436,3950.2564,3944.1026,3938.4615,3796.9231
3887.1795,4028.2051,3866.1538,3403.0769,3913.8462,3945.641,3896.4103,3911.7949,3952.8205,3946.6667,3944.6154,3788.2051
3904.1026,4045.641,3846.1538,3396.4103,3944.6154,3937.9487,3892.3077,3901.5385,3945.1282,3940.5128,3942.5641,3786.6667
3911.2821,4050.7692,3831.2821,3386.1538,3935.8974,3938.9744,3895.3846,3897.9487,3942.0513,3929.7436,3941.0256,3783.5897
3894.359,4021.5385,3835.3846,3415.8974,3911.7949,3941.0256,3891.2821,3893.3333,3939.4872,3917.9487,3936.9231,3777.9487
3917.9487,4028.2051,3844.6154,3437.9487,3943.5897,3951.2821,3888.7179,3892.8205,3939.4872,3924.1026,3942.5641,3784.1026
3950.2564,4046.1538,3850.2564,3444.6154,3972.3077,3961.0256,3900,3904.1026,3952.3077,3938.9744,3962.5641,3798.9744
3922.5641,4028.2051,3850.7692,3466.6667,3935.8974,3948.2051,3902.5641,3903.5897,3952.8205,3932.3077,3962.0513,3793.8462
3901.5385,4003.0769,3837.9487,3477.4359,3908.7179,3934.359,3889.2308,3887.6923,3938.4615,3917.9487,3940,3778.9744
3927.6923,4009.2308,3835.3846,3480.5128,3936.9231,3943.5897,3887.1795,3886.1538,3943.5897,3925.641,3946.1538,3786.1538
3940,4032.3077,3856.4103,3503.0769,3963.5897,3949.2308,3897.4359,3902.5641,3963.0769,3943.0769,3970.7692,3805.641
3941.0256,4034.359,3867.1795,3529.7436,3970.7692,3949.7436,3896.9231,3911.7949,3971.2821,3945.641,3980,3811.7949
3940.5128,4025.641,3861.0256,3546.1538,3955.8974,3959.4872,3893.8462,3912.3077,3969.2308,3938.4615,3974.8718,3803.0769
3919.4872,4020,3862.0513,3553.3333,3936.9231,3961.5385,3902.0513,3909.7436,3969.7436,3935.3846,3972.8205,3793.3333
3914.8718,4026.1538,3867.1795,3562.0513,3960,3958.9744,3906.6667,3916.4103,3982.5641,3945.1282,3986.6667,3802.5641
3940.5128,4044.1026,3869.7436,3597.9487,3977.4359,3962.5641,3905.1282,3930.2564,3995.8974,3958.9744,3999.4872,3820.5128
3951.2821,4036.9231,3875.8974,3632.8205,3963.5897,3967.6923,3906.6667,3928.7179,3992.3077,3961.0256,3996.9231,3826.6667
3944.6154,4034.8718,3874.8718,3631.7949,3970.7692,3972.3077,3910.2564,3923.5897,3990.7692,3958.4615,3993.3333,3830.7692
3929.2308,4044.1026,3861.0256,3621.0256,3975.3846,3980,3914.8718,3934.359,4002.5641,3958.4615,3994.359,3834.8718
3904.6154,4022.5641,3844.1026,3610.2564,3960,3988.7179,3921.0256,3941.0256,4002.0513,3953.3333,3991.7949,3824.6154
3909.7436,4026.6667,3832.3077,3600.5128,3978.9744,3995.3846,3927.1795,3941.5385,3995.3846,3951.2821,3991.7949,3818.9744
3920,4044.1026,3828.7179,3625.1282,3987.1795,4004.1026,3928.2051,3942.0513,3995.3846,3953.3333,3989.7436,3826.1538
3880,4015.8974,3833.3333,3667.6923,3934.8718,4000.5128,3920.5128,3930.2564,3987.1795,3945.1282,3974.359,3813.3333
3880,4009.7436,3844.1026,3666.1538,3928.2051,3988.2051,3915.8974,3926.6667,3986.1538,3944.6154,3974.359,3802.5641
3950.7692,4049.7436,3854.8718,3648.7179,3982.5641,3994.359,3927.1795,3949.2308,4010.7692,3966.6667,4005.641,3832.3077
3976.9231,4070.2564,3861.0256,3669.2308,4000.5128,4009.7436,3942.0513,3973.8462,4031.7949,3986.6667,4039.4872,3863.5897
3941.0256,4036.4103,3864.1026,3691.7949,3984.6154,4020.5128,3949.7436,3987.1795,4033.3333,3988.7179,4062.5641,3860.5128
3931.7949,4024.6154,3865.641,3696.9231,3979.4872,4035.3846,3955.8974,3993.3333,4030.7692,3986.6667,4070.2564,3852.3077
3953.8462,4053.3333,3861.0256,3693.8462,3978.4615,4044.1026,3965.641,3995.8974,4034.359,3989.2308,4073.3333,3865.1282
3924.6154,4034.359,3867.1795,3690.7692,3963.5897,4035.8974,3969.7436,4001.0256,4042.5641,3994.8718,4088.7179,3870.2564
3878.4615,4014.8718,3884.1026,3689.2308,3964.1026,4030.2564,3964.6154,3998.4615,4045.641,3995.3846,4091.2821,3855.8974
3929.2308,4050.7692,3881.0256,3704.1026,4000,4034.359,3956.9231,3987.6923,4041.5385,3990.7692,4080,3861.0256
3970.7692,4053.8462,3868.2051,3757.9487,4014.8718,4035.3846,3955.3846,3985.641,4033.3333,3982.5641,4080,3869.7436
3908.7179,4019.4872,3878.4615,3774.8718,3974.8718,4038.4615,3962.5641,3985.641,4027.1795,3973.3333,4082.5641,3855.3846
3913.8462,4044.6154,3889.2308,3735.3846,3969.7436,4049.2308,3968.2051,3984.6154,4034.8718,3980.5128,4084.1026,3858.9744
3989.7436,4093.3333,3881.5385,3738.4615,4007.6923,4049.7436,3966.1538,3990.2564,4049.2308,3994.8718,4091.7949,3881.5385
3956.9231,4064.1026,3883.5897,3776.4103,3976.9231,4042.5641,3963.5897,3992.3077,4049.2308,3994.359,4091.2821,3878.4615
3908.2051,4038.4615,3897.4359,3771.2821,3934.8718,4047.6923,3968.7179,3994.8718,4045.1282,3993.3333,4083.5897,3873.8462
3951.2821,4074.8718,3902.0513,3761.5385,3968.7179,4054.8718,3973.3333,4002.5641,4053.8462,4001.5385,4090.2564,3888.2051
3962.5641,4079.4872,3900.5128,3795.8974,3994.359,4050.2564,3968.7179,4002.0513,4058.9744,4002.0513,4095.3846,3884.6154
3929.2308,4058.4615,3908.7179,3812.8205,3975.3846,4051.7949,3970.7692,3999.4872,4056.4103,3998.9744,4092.3077,3875.8974
3947.6923,4056.4103,3913.3333,3810.2564,3982.0513,4058.9744,3974.8718,4002.0513,4059.4872,4004.1026,4092.3077,3890.2564
3952.8205,4049.2308,3901.5385,3820.5128,4004.6154,4053.8462,3971.2821,4001.0256,4061.5385,4004.1026,4085.641,3894.359
3914.8718,4037.9487,3898.4615,3816.4103,3986.6667,4048.7179,3973.3333,4002.5641,4063.5897,4003.0769,4079.4872,3884.6154
3939.4872,4044.6154,3904.6154,3812.3077,3976.9231,4057.4359,3983.0769,4016.9231,4074.8718,4016.4103,4090.2564,3898.4615
3984.6154,4051.7949,3902.5641,3848.2051,4003.0769,4068.7179,3991.2821,4029.7436,4083.5897,4032.3077,4100.5128,3917.4359
3935.3846,4016.4103,3894.8718,3856.4103,3987.6923,4068.2051,3988.2051,4020.5128,4071.2821,4024.6154,4080.5128,3898.9744
3900.5128,4002.0513,3893.8462,3805.641,3958.4615,4064.1026,3985.1282,4010.2564,4062.5641,4011.7949,4062.0513,3882.5641
3966.1538,4054.359,3899.4872,3815.3846,4002.5641,4077.4359,3997.9487,4031.2821,4082.0513,4026.1538,4080,3903.5897
3993.8462,4062.0513,3908.2051,3901.5385,4049.7436,4094.359,4012.3077,4052.8205,4098.9744,4044.1026,4098.4615,3922.0513
3949.2308,4028.7179,3916.4103,3908.2051,4013.3333,4083.0769,4005.641,4042.0513,4088.7179,4036.9231,4077.4359,3912.8205
3940.5128,4037.4359,3911.2821,3857.4359,3986.1538,4070.7692,3993.3333,4027.6923,4077.9487,4023.5897,4053.3333,3904.1026
3945.1282,4045.1282,3908.7179,3873.3333,4011.7949,4078.9744,3991.7949,4028.2051,4083.0769,4024.6154,4064.6154,3903.5897
3942.5641,4040.5128,3921.0256,3911.7949,4023.5897,4078.9744,3994.8718,4029.7436,4090.2564,4031.7949,4083.0769,3910.7692
3973.8462,4041.0256,3928.7179,3919.4872,4032.3077,4077.4359,3996.9231,4031.7949,4095.8974,4036.9231,4091.2821,3936.4103
3985.1282,4037.4359,3925.641,3917.4359,4027.1795,4085.641,3993.3333,4025.1282,4094.359,4036.9231,4094.8718,3952.8205
3986.1538,4048.2051,3932.3077,3930.7692,4027.6923,4093.3333,3997.4359,4020.5128,4096.9231,4042.0513,4100.5128,3955.3846
4018.4615,4050.7692,3937.9487,3955.8974,4027.6923,4089.7436,4001.5385,4028.7179,4106.1538,4050.7692,4106.1538,3962.5641
4006.1538,4035.3846,3934.359,3937.9487,3988.2051,4074.359,3993.3333,4026.6667,4105.1282,4047.6923,4103.0769,3957.9487
3987.1795,4042.0513,3942.5641,3915.8974,3992.8205,4076.4103,3995.3846,4025.1282,4109.2308,4052.3077,4112.8205,3965.1282
4037.4359,4065.1282,3958.9744,3978.4615,4066.6667,4098.9744,4012.8205,4047.6923,4129.7436,4075.8974,4134.8718,3997.4359
4058.9744,4058.4615,3964.1026,4030.2564,4075.8974,4105.641,4023.5897,4066.1538,4141.5385,4091.2821,4138.9744,4008.2051
4020.5128,4042.5641,3962.5641,3996.4103,4025.1282,4096.9231,4015.8974,4059.4872,4141.0256,4086.1538,4140,3996.4103
4022.0513,4064.1026,3959.4872,3985.1282,4050.7692,4104.6154,4013.8462,4058.9744,4147.1795,4084.1026,4156.9231,4000
4026.6667,4058.9744,3959.4872,4003.5897,4064.6154,4106.6667,4014.8718,4059.4872,4144.6154,4079.4872,4155.3846,4004.6154
3999.4872,4039.4872,3969.2308,3994.8718,4014.8718,4096.9231,4015.3846,4053.3333,4136.4103,4070.2564,4144.6154,4002.0513
4013.8462,4054.359,3973.3333,4009.2308,4033.3333,4103.0769,4022.0513,4062.5641,4141.5385,4073.3333,4161.0256,4009.2308
4033.3333,4041.0256,3974.8718,4032.3077,4069.2308,4115.8974,4026.1538,4066.1538,4143.5897,4076.4103,4167.6923,4013.3333
4026.1538,4035.8974,3991.7949,4017.4359,4038.4615,4117.9487,4033.3333,4058.9744,4139.4872,4078.9744,4157.4359,4013.3333
4043.0769,4068.7179,3996.9231,4017.4359,4036.4103,4123.5897,4044.6154,4066.1538,4145.641,4086.6667,4168.2051,4015.8974
4059.4872,4071.2821,3981.5385,4040,4073.8462,4131.7949,4040.5128,4069.7436,4139.4872,4083.0769,4169.2308,4005.641
4041.0256,4054.8718,3976.9231,4034.8718,4052.8205,4121.0256,4025.641,4059.4872,4120,4068.7179,4144.6154,3989.2308
4013.8462,4046.6667,3991.7949,4038.9744,4018.4615,4109.7436,4031.2821,4068.2051,4129.7436,4076.9231,4151.2821,3988.2051
4004.1026,4046.1538,4004.6154,4057.4359,4035.8974,4115.8974,4049.2308,4085.1282,4149.7436,4093.3333,4172.3077,3993.3333
4020.5128,4054.8718,4005.641,4049.7436,4072.3077,4127.6923,4052.8205,4083.5897,4143.0769,4092.8205,4165.641,4000.5128
4043.0769,4065.1282,4006.6667,4046.1538,4092.3077,4129.2308,4052.8205,4081.5385,4138.9744,4093.3333,4167.1795,4006.1538
4014.359,4047.1795,4007.1795,4066.6667,4064.1026,4114.8718,4049.2308,4080,4141.0256,4090.2564,4170.2564,3993.8462
3993.3333,4034.359,4005.1282,4069.2308,4050.2564,4111.2821,4045.641,4074.359,4134.8718,4084.1026,4160.5128,3992.3077
4031.7949,4067.1795,4005.641,4075.8974,4089.7436,4128.2051,4058.9744,4087.6923,4143.5897,4098.4615,4173.3333,4013.8462
4032.3077,4065.1282,4009.7436,4090.2564,4077.9487,4134.359,4067.6923,4105.641,4156.4103,4110.2564,4185.1282,4015.8974
3998.9744,4031.2821,4013.3333,4074.8718,4041.5385,4127.6923,4062.5641,4100,4145.1282,4098.4615,4161.0256,4001.5385
4014.359,4055.8974,4012.8205,4063.0769,4065.641,4126.1538,4063.5897,4093.8462,4137.4359,4091.2821,4148.2051,4003.0769
4025.1282,4074.8718,4008.7179,4090.2564,4088.2051,4131.2821,4067.1795,4100,4146.6667,4096.4103,4165.1282,4001.0256
3998.9744,4048.7179,4002.5641,4106.6667,4074.8718,4144.6154,4063.0769,4095.3846,4142.5641,4089.7436,4157.9487,3990.7692
3999.4872,4049.2308,4004.1026,4087.6923,4052.8205,4143.0769,4057.9487,4085.641,4136.9231,4085.1282,4140,4002.0513
4005.1282,4056.9231,4017.9487,4087.1795,4044.1026,4124.6154,4061.0256,4096.4103,4151.7949,4100.5128,4160.5128,4007.6923
3993.3333,4050.2564,4028.7179,4107.1795,4053.8462,4121.0256,4069.2308,4111.2821,4160,4111.2821,4177.9487,4002.0513
4028.2051,4063.5897,4028.2051,4121.0256,4083.0769,4135.3846,4068.2051,4109.2308,4155.3846,4117.4359,4177.4359,4027.1795
4049.2308,4061.0256,4029.7436,4122.5641,4095.3846,4138.9744,4065.1282,4106.1538,4161.0256,4121.0256,4186.6667,4038.4615
4008.7179,4037.9487,4034.8718,4100.5128,4070.7692,4133.3333,4070.2564,4111.2821,4169.7436,4117.9487,4192.8205,4015.8974
4024.1026,4053.3333,4031.2821,4105.1282,4058.9744,4132.8205,4076.9231,4116.4103,4170.7692,4122.5641,4194.359,4033.3333
4073.3333,4078.9744,4018.9744,4138.9744,4076.9231,4141.0256,4076.4103,4111.2821,4163.0769,4120.5128,4194.359,4055.8974
4041.0256,4049.7436,4010.2564,4133.3333,4087.1795,4152.8205,4072.3077,4099.4872,4152.8205,4100.5128,4182.0513,4028.2051
4012.8205,4037.9487,4014.359,4112.8205,4072.3077,4149.7436,4072.3077,4102.5641,4155.8974,4096.9231,4176.9231,4018.9744
4055.8974,4078.4615,4024.6154,4143.5897,4081.5385,4148.7179,4086.1538,4122.5641,4172.8205,4118.9744,4196.9231,4041.0256
4063.0769,4076.4103,4028.7179,4164.1026,4102.5641,4157.4359,4092.8205,4125.641,4174.8718,4126.1538,4200,4030.2564
4018.9744,4053.8462,4029.2308,4138.9744,4089.7436,4154.359,4079.4872,4110.2564,4165.1282,4118.9744,4178.9744,4009.7436
4013.3333,4053.3333,4029.2308,4133.3333,4086.1538,4152.3077,4077.4359,4111.7949,4168.2051,4125.1282,4181.0256,4018.4615
4033.3333,4056.4103,4026.6667,4138.9744,4102.0513,4156.4103,4092.3077,4124.1026,4172.8205,4133.8462,4195.3846,4027.6923
4031.2821,4057.4359,4027.6923,4136.4103,4103.0769,4150.7692,4095.8974,4126.6667,4169.2308,4136.4103,4192.3077,4025.1282
4031.2821,4045.641,4025.1282,4138.9744,4102.0513,4148.2051,4086.1538,4121.0256,4167.1795,4136.9231,4183.5897,4027.6923
4035.8974,4052.8205,4018.4615,4136.4103,4101.5385,4149.7436,4082.5641,4122.0513,4171.7949,4136.9231,4190.2564,4030.2564
4029.7436,4061.5385,4023.0769,4136.4103,4090.2564,4150.7692,4088.2051,4130.2564,4175.8974,4137.9487,4204.6154,4029.7436
4031.2821,4046.6667,4028.2051,4140.5128,4097.9487,4156.4103,4090.7692,4127.1795,4169.2308,4136.4103,4201.5385,4034.8718
4048.2051,4048.7179,4022.5641,4136.4103,4131.7949,4154.359,4086.6667,4123.0769,4171.2821,4139.4872,4199.4872,4041.0256
4052.8205,4052.8205,4019.4872,4133.8462,4140.5128,4140.5128,4081.5385,4124.6154,4178.9744,4143.0769,4205.641,4043.0769
4044.6154,4046.1538,4022.5641,4142.5641,4118.9744,4144.6154,4079.4872,4117.4359,4172.3077,4134.8718,4196.4103,4038.4615
4046.1538,4047.1795,4019.4872,4157.4359,4116.9231,4160,4082.5641,4111.7949,4169.7436,4130.2564,4192.3077,4035.8974
4054.359,4049.2308,4020,4174.359,4136.4103,4155.3846,4087.6923,4121.5385,4182.5641,4136.4103,4209.2308,4043.5897
4053.3333,4049.2308,4027.1795,4188.2051,4143.0769,4148.2051,4093.8462,4132.3077,4187.6923,4140,4215.8974,4049.2308
4050.2564,4047.1795,4028.2051,4182.0513,4126.6667,4154.8718,4094.8718,4136.9231,4183.5897,4141.5385,4211.7949,4047.6923
4051.7949,4054.359,4029.2308,4165.1282,4120.5128,4152.3077,4094.8718,4137.9487,4185.1282,4143.5897,4214.8718,4050.2564
4056.4103,4057.4359,4027.6923,4155.8974,4151.7949,4151.2821,4100.5128,4134.8718,4186.1538,4138.9744,4216.4103,4054.359
4062.5641,4050.7692,4021.5385,4141.0256,4171.7949,4167.6923,4100,4132.8205,4182.0513,4139.4872,4218.4615,4055.8974
4071.2821,4058.4615,4026.1538,4121.0256,4155.8974,4169.2308,4096.9231,4137.9487,4187.6923,4153.8462,4229.7436,4069.7436
4078.9744,4055.8974,4033.8462,4110.7692,4139.4872,4156.9231,4101.5385,4139.4872,4195.8974,4158.4615,4237.4359,4085.641
4078.9744,4047.1795,4022.5641,4114.359,4138.4615,4160,4102.0513,4135.8974,4192.8205,4146.6667,4240,4082.5641
4086.6667,4051.2821,4012.8205,4145.1282,4140.5128,4171.2821,4099.4872,4136.4103,4193.3333,4146.6667,4245.641,4085.641
4095.3846,4048.7179,4019.4872,4175.3846,4117.4359,4173.8462,4104.1026,4140,4202.0513,4154.359,4244.6154,4096.9231
4090.2564,4052.3077,4016.9231,4194.359,4091.7949,4171.7949,4107.6923,4135.8974,4200,4146.6667,4232.3077,4087.6923
4094.359,4058.4615,4013.3333,4265.641,4105.641,4167.6923,4102.5641,4134.8718,4195.3846,4144.1026,4230.7692,4080.5128
4101.5385,4043.5897,4022.5641,4336.9231,4107.1795,4163.5897,4104.6154,4143.0769,4208.7179,4156.4103,4245.1282,4091.2821
4090.2564,4028.2051,4023.0769,4337.9487,4065.641,4164.6154,4108.2051,4143.5897,4217.9487,4156.4103,4248.2051,4091.7949
4094.359,4039.4872,4017.4359,4377.4359,4068.2051,4169.2308,4105.1282,4141.5385,4217.4359,4153.8462,4247.1795,4087.1795
4125.1282,4064.6154,4024.1026,4518.9744,4103.0769,4174.8718,4106.6667,4149.7436,4226.6667,4166.1538,4259.4872,4098.9744
4130.2564,4053.8462,4035.8974,4654.359,4068.7179,4183.5897,4106.6667,4154.8718,4235.3846,4171.2821,4267.1795,4111.2821
4083.5897,4028.7179,4046.6667,4696.4103,4027.6923,4187.1795,4105.641,4147.6923,4232.3077,4168.2051,4260.5128,4109.2308
4064.1026,4038.4615,4051.7949,4676.4103,4055.3846,4182.5641,4109.2308,4141.0256,4228.7179,4167.6923,4261.0256,4101.5385
4117.4359,4060,4048.7179,4677.9487,4088.2051,4190.2564,4115.8974,4146.6667,4233.3333,4169.7436,4273.8462,4110.2564
4152.3077,4079.4872,4048.2051,4695.8974,4082.5641,4204.1026,4123.0769,4154.8718,4234.359,4172.8205,4271.7949,4123.0769
4116.4103,4074.8718,4050.2564,4648.2051,4046.6667,4192.3077,4120,4153.8462,4230.7692,4170.7692,4258.9744,4112.8205
4094.359,4060.5128,4055.8974,4584.1026,4021.5385,4171.7949,4117.4359,4152.8205,4235.3846,4172.8205,4268.2051,4105.1282
4122.5641,4074.8718,4070.2564,4583.5897,4033.3333,4183.5897,4130.7692,4173.8462,4253.8462,4187.1795,4272.8205,4122.0513
4115.3846,4070.2564,4070.2564,4550.2564,4036.4103,4203.0769,4135.8974,4185.1282,4256.4103,4188.7179,4232.3077,4118.9744
4077.4359,4057.4359,4060,4477.4359,4029.7436,4197.4359,4123.5897,4170.7692,4246.1538,4179.4872,4191.7949,4100.5128
4096.4103,4066.6667,4071.2821,4473.8462,4064.6154,4203.0769,4128.2051,4175.8974,4261.0256,4193.8462,4211.7949,4122.0513
4106.1538,4061.0256,4075.8974,4486.6667,4068.7179,4219.4872,4141.5385,4187.6923,4271.7949,4204.6154,4234.359,4139.4872
4052.3077,4053.3333,4063.0769,4468.2051,4013.8462,4214.359,4138.9744,4176.4103,4253.3333,4190.7692,4213.3333,4110.2564
4073.3333,4077.4359,4072.3077,4457.9487,4030.7692,4218.9744,4135.8974,4177.4359,4252.8205,4197.9487,4209.7436,4106.6667
4154.8718,4102.0513,4094.8718,4457.4359,4076.9231,4229.7436,4143.0769,4199.4872,4275.3846,4221.5385,4239.4872,4142.0513
4139.4872,4093.8462,4104.1026,4443.5897,4061.5385,4220.5128,4149.2308,4208.7179,4281.0256,4222.0513,4253.8462,4149.7436
4103.0769,4094.359,4109.2308,4430.7692,4040.5128,4224.1026,4155.3846,4205.641,4274.8718,4216.4103,4248.7179,4137.9487
4121.0256,4111.2821,4112.8205,4420,4011.7949,4235.3846,4158.4615,4207.1795,4270.2564,4218.9744,4245.641,4137.9487
