"AF3","F7","F3","FC5","T7","P7","O1","O2","FC6","F4","F8","AF4"
4064.1026,4120,4047.1795,4118.4615,4157.4359,4066.6667,4087.1795,4087.6923,4769.2308,4109.2308,4532.3077,4084.6154
4086.1538,4131.2821,4058.9744,4131.7949,4192.3077,4070.2564,4109.7436,4105.641,4761.0256,4121.5385,4529.2308,4103.5897
4096.4103,4127.1795,4054.8718,4142.0513,4205.641,4070.2564,4118.9744,4109.7436,4768.2051,4115.8974,4535.3846,4108.7179
4097.9487,4125.641,4047.6923,4148.7179,4203.0769,4072.3077,4113.3333,4104.6154,4752.8205,4105.1282,4515.8974,4103.0769
4100.5128,4124.1026,4049.7436,4154.359,4208.7179,4072.8205,4109.2308,4107.6923,4731.7949,4106.6667,4491.2821,4102.5641
4105.641,4120.5128,4056.9231,4148.7179,4213.8462,4064.6154,4101.5385,4109.2308,4718.4615,4112.8205,4479.4872,4105.641
4104.1026,4123.5897,4056.9231,4123.5897,4213.8462,4064.6154,4096.4103,4096.4103,4692.3077,4106.1538,4459.4872,4106.1538
4104.1026,4120.5128,4057.9487,4092.3077,4225.1282,4072.3077,4102.0513,4090.2564,4662.0513,4101.5385,4430.7692,4107.1795
4106.6667,4124.6154,4064.1026,4069.7436,4225.1282,4075.8974,4111.7949,4103.0769,4638.4615,4104.6154,4405.1282,4106.1538
4091.7949,4121.5385,4053.8462,4036.4103,4196.9231,4077.9487,4104.1026,4101.0256,4610.2564,4093.3333,4358.9744,4095.3846
4081.0256,4115.8974,4049.2308,4011.7949,4191.7949,4070.2564,4093.3333,4095.8974,4577.9487,4081.5385,4313.8462,4090.7692
4086.1538,4124.1026,4065.1282,4016.4103,4212.3077,4069.2308,4105.641,4109.2308,4538.9744,4086.1538,4296.4103,4092.8205
4087.1795,4118.9744,4074.8718,4017.9487,4211.2821,4094.8718,4118.9744,4118.4615,4495.3846,4088.7179,4289.2308,4089.2308
4078.4615,4120.5128,4072.3077,4001.0256,4209.2308,4110.7692,4114.359,4116.4103,4447.1795,4083.0769,4275.8974,4089.2308
4068.2051,4125.1282,4071.2821,3992.3077,4206.6667,4101.5385,4104.1026,4110.2564,4370.2564,4070.7692,4253.8462,4086.6667
4068.7179,4121.0256,4077.4359,3995.8974,4202.0513,4095.3846,4109.7436,4112.8205,4297.4359,4068.7179,4236.9231,4082.0513
4088.2051,4131.7949,4096.9231,4003.0769,4246.1538,4107.1795,4127.1795,4135.3846,4284.6154,4094.359,4245.1282,4094.359
4114.359,4136.4103,4119.4872,4020,4288.2051,4125.641,4144.1026,4155.8974,4291.7949,4121.0256,4275.8974,4122.0513
4115.3846,4134.359,4120,4028.7179,4255.3846,4127.1795,4150.2564,4154.359,4255.3846,4111.7949,4271.2821,4123.0769
4118.4615,4136.4103,4128.7179,4034.359,4251.2821,4123.0769,4154.8718,4166.6667,4268.2051,4123.5897,4272.3077,4126.6667
4177.4359,4151.2821,4192.8205,4128.7179,4340,4171.7949,4190.7692,4196.9231,4175.3846,4178.9744,4666.6667,4182.0513
4160,4144.1026,4184.6154,4110.7692,4327.6923,4165.1282,4170.7692,4173.8462,4148.2051,4155.8974,4651.2821,4169.2308
4169.2308,4153.3333,4189.7436,4126.1538,4353.8462,4166.1538,4180,4186.1538,4137.4359,4163.0769,4702.0513,4182.5641
4158.9744,4145.1282,4175.3846,4134.8718,4317.4359,4164.6154,4176.4103,4175.8974,4136.4103,4160.5128,4697.4359,4170.7692
4129.7436,4138.9744,4154.359,4096.9231,4280,4183.5897,4160,4146.1538,4139.4872,4136.4103,4654.359,4143.0769
4166.6667,4152.8205,4188.2051,4118.9744,4365.1282,4202.0513,4189.7436,4185.1282,4138.9744,4161.5385,4702.5641,4172.3077
4184.1026,4151.7949,4202.5641,4156.4103,4383.5897,4173.8462,4201.0256,4211.2821,4135.3846,4178.4615,4726.6667,4182.5641
4134.359,4130.7692,4162.0513,4108.2051,4308.7179,4151.7949,4165.1282,4170.2564,4137.9487,4145.641,4677.4359,4142.5641
4140.5128,4138.4615,4170.7692,4088.7179,4346.6667,4180,4172.3077,4176.4103,4138.9744,4149.2308,4693.8462,4151.2821
4176.4103,4156.9231,4205.1282,4114.359,4384.6154,4192.3077,4205.641,4211.2821,4121.5385,4172.8205,4728.2051,4179.4872
4161.5385,4138.9744,4194.8718,4096.4103,4335.3846,4186.1538,4202.0513,4198.4615,4109.7436,4162.5641,4702.0513,4170.2564
4144.1026,4133.3333,4177.9487,4085.641,4339.4872,4204.6154,4187.1795,4175.3846,4099.4872,4145.641,4667.6923,4156.4103
4158.4615,4151.2821,4183.0769,4114.8718,4370.7692,4207.1795,4185.1282,4180,4096.9231,4150.7692,4668.2051,4162.5641
4172.3077,4149.2308,4189.7436,4117.4359,4347.6923,4199.4872,4188.2051,4189.2308,4099.4872,4158.9744,4676.9231,4173.8462
4154.8718,4140,4185.1282,4092.3077,4307.6923,4193.8462,4181.5385,4174.8718,4080,4151.2821,4652.8205,4158.9744
4140.5128,4133.8462,4185.1282,4095.3846,4304.6154,4173.8462,4173.8462,4166.6667,4089.2308,4155.3846,4632.8205,4149.2308
4152.8205,4144.1026,4196.9231,4106.1538,4328.7179,4178.4615,4185.1282,4190.2564,4095.3846,4170.7692,4637.9487,4167.6923
4163.5897,4154.359,4214.359,4096.4103,4333.8462,4208.7179,4193.8462,4201.5385,4025.1282,4165.1282,4622.0513,4173.8462
4151.2821,4138.4615,4230.2564,4085.641,4293.3333,4199.4872,4183.0769,4177.4359,3980.5128,4149.7436,4578.9744,4155.3846
4138.9744,4134.8718,4232.8205,4091.7949,4264.1026,4171.7949,4180.5128,4168.2051,4018.9744,4149.7436,4559.4872,4145.641
4141.0256,4138.4615,4220,4106.6667,4265.641,4186.6667,4184.6154,4176.9231,4007.6923,4141.0256,4563.5897,4143.5897
4147.1795,4138.9744,4213.8462,4116.4103,4256.9231,4193.3333,4176.4103,4172.8205,4005.641,4142.5641,4556.9231,4149.2308
4152.3077,4143.0769,4216.9231,4105.641,4245.1282,4162.5641,4165.641,4169.2308,4078.4615,4169.2308,4548.2051,4165.1282
4151.2821,4131.7949,4204.6154,4092.3077,4245.641,4141.0256,4162.5641,4166.6667,4053.8462,4161.0256,4540.5128,4157.4359
4155.8974,4133.3333,4202.0513,4098.9744,4260,4147.6923,4170.7692,4167.6923,3970.7692,4137.4359,4534.359,4147.1795
4153.8462,4136.4103,4203.5897,4090.2564,4260,4168.7179,4173.8462,4166.6667,3972.3077,4138.4615,4527.1795,4150.2564
4124.6154,4124.6154,4184.6154,4055.3846,4198.9744,4161.5385,4150.2564,4144.1026,3996.4103,4132.3077,4510.2564,4129.7436
4105.1282,4125.1282,4178.9744,4045.1282,4136.9231,4129.2308,4133.8462,4129.7436,3967.6923,4116.9231,4491.7949,4107.1795
4128.7179,4133.3333,4206.6667,4069.7436,4176.9231,4138.4615,4153.8462,4149.2308,3934.8718,4130.2564,4493.8462,4127.1795
4156.4103,4142.5641,4223.5897,4092.3077,4215.3846,4181.5385,4173.3333,4170.7692,3939.4872,4157.4359,4509.2308,4157.4359
4119.4872,4121.5385,4183.0769,4078.9744,4079.4872,4168.7179,4140,4131.2821,3923.5897,4121.5385,4470.2564,4120.5128
4085.641,4106.1538,4159.4872,4067.6923,3984.1026,4128.7179,4113.8462,4091.2821,3903.5897,4082.5641,4417.4359,4079.4872
4146.6667,4147.6923,4213.8462,4105.1282,4165.1282,4151.2821,4156.4103,4142.5641,3952.3077,4144.1026,4444.6154,4138.4615
4216.4103,4166.6667,4257.4359,4139.4872,4345.1282,4189.2308,4204.1026,4211.2821,4029.7436,4222.5641,4482.5641,4216.9231
4186.6667,4148.7179,4215.8974,4113.8462,4254.8718,4180,4190.2564,4189.2308,4012.3077,4191.2821,4407.6923,4186.1538
4143.0769,4147.6923,4181.5385,4094.359,4147.1795,4158.9744,4161.5385,4144.1026,3966.1538,4141.5385,4304.6154,4138.9744
4171.7949,4164.6154,4210.7692,4132.8205,4222.0513,4168.7179,4172.3077,4162.0513,3988.7179,4174.359,4275.3846,4178.4615
4197.4359,4170.2564,4214.8718,4162.0513,4254.359,4187.6923,4181.5385,4172.3077,3982.5641,4186.1538,4222.0513,4201.5385
4165.641,4143.0769,4170.7692,4150.2564,4118.9744,4163.0769,4143.5897,4120,3913.3333,4125.1282,4099.4872,4147.1795
4157.4359,4148.7179,4164.6154,4148.2051,4103.5897,4132.3077,4131.7949,4109.2308,3905.1282,4122.5641,4047.1795,4144.6154
4191.2821,4170.2564,4201.5385,4218.4615,4224.1026,4128.7179,4157.4359,4149.7436,3943.0769,4176.4103,4061.0256,4189.2308
4177.4359,4144.6154,4199.4872,4297.9487,4172.8205,4121.0256,4138.9744,4126.1538,3910.2564,4153.8462,4010.2564,4157.4359
4152.3077,4140,4168.7179,4275.8974,4097.9487,4129.2308,4132.8205,4104.6154,3896.9231,4127.1795,3946.6667,4134.359
4171.2821,4164.1026,4164.1026,4245.641,4227.6923,4160.5128,4172.8205,4153.8462,3955.8974,4173.8462,3919.4872,4191.7949
4108.7179,4135.3846,4122.5641,4252.3077,4114.359,4113.3333,4115.3846,4094.359,3904.6154,4119.4872,3766.6667,4130.7692
4056.9231,4115.3846,4085.641,4257.4359,3878.4615,4065.641,4062.5641,4021.0256,3843.0769,4040,3658.4615,4049.7436
4120.5128,4158.4615,4122.0513,4309.7436,4046.1538,4105.641,4127.1795,4096.9231,3915.8974,4102.0513,3748.7179,4117.9487
4148.7179,4177.4359,4149.7436,4390.2564,4213.8462,4105.1282,4144.6154,4130.2564,3962.5641,4160,3752.3077,4132.8205
4166.1538,4164.6154,4160,4456.9231,4120.5128,4086.1538,4117.9487,4102.5641,3960,4161.5385,3693.3333,4098.9744
4234.359,4193.8462,4187.1795,4499.4872,4121.0256,4128.2051,4154.8718,4145.641,3982.0513,4180.5128,3766.1538,4163.0769
4242.0513,4208.2051,4190.7692,4521.5385,4165.641,4129.2308,4151.7949,4145.641,3977.4359,4188.7179,3741.0256,4201.0256
4257.9487,4205.1282,4192.8205,4577.9487,4108.2051,4084.6154,4098.9744,4083.0769,3953.3333,4198.4615,3616.4103,4143.5897
4347.1795,4244.6154,4237.9487,4678.9744,4106.6667,4091.2821,4102.5641,4089.7436,3934.359,4242.0513,3637.9487,4087.6923
4381.0256,4253.3333,4266.6667,4775.3846,4115.8974,4092.8205,4096.9231,4090.2564,3844.6154,4230.7692,3708.2051,4103.5897
4409.7436,4268.7179,4233.8462,4976.9231,4063.0769,4051.7949,4046.1538,4027.1795,3680,4135.8974,3766.6667,4173.3333
4592.3077,4362.5641,4233.8462,5383.0769,4131.2821,4070.2564,4061.0256,4042.0513,3602.0513,4125.641,3997.4359,4214.8718
4823.5897,4441.0256,4290.2564,5818.9744,4187.1795,4118.9744,4112.3077,4107.6923,3592.3077,4209.2308,4379.4872,4198.4615
4940.5128,4469.7436,4232.8205,6153.8462,4105.641,4091.2821,4093.3333,4085.641,3464.1026,4218.9744,4810.2564,4246.1538
4954.359,4476.4103,4026.1538,6478.4615,4035.3846,4012.8205,4021.0256,3993.3333,3249.7436,4166.6667,5244.1026,4298.4615
4993.8462,4518.4615,3929.7436,6844.6154,4113.3333,4019.4872,4038.9744,4008.7179,3164.1026,4241.0256,5724.1026,4305.1282
5054.359,4573.8462,3914.359,7147.6923,4197.4359,4063.5897,4101.5385,4089.7436,3068.2051,4307.6923,6239.4872,4405.1282
4998.4615,4582.0513,3734.359,7334.359,4128.2051,3984.6154,4027.6923,4025.641,2743.0769,4173.3333,6660,4506.1538
4863.0769,4578.4615,3545.641,7494.8718,3975.8974,3856.9231,3890.2564,3884.1026,2430.7692,4052.3077,6928.2051,4453.8462
4827.6923,4569.2308,3536.9231,7622.0513,3904.1026,3843.5897,3878.4615,3875.8974,2384.1026,4094.359,7131.2821,4407.1795
4872.8205,4555.3846,3560,7635.3846,3954.359,3889.7436,3931.7949,3938.9744,2489.2308,4158.4615,7323.5897,4462.5641
4850.7692,4532.3077,3520.5128,7614.359,3931.2821,3857.4359,3895.3846,3890.2564,2611.7949,4141.0256,7481.5385,4461.0256
4810.7692,4491.7949,3537.4359,7621.5385,3860.5128,3806.6667,3850.7692,3835.8974,2770.7692,4154.8718,7574.8718,4432.3077
4826.6667,4464.1026,3608.2051,7613.8462,3899.4872,3807.6923,3875.8974,3880,2941.0256,4229.7436,7599.4872,4482.0513
4804.6154,4430.2564,3617.4359,7606.6667,3929.7436,3802.5641,3883.5897,3905.641,3042.5641,4250.2564,7620,4491.7949
4726.1538,4388.2051,3571.7949,7609.2308,3860.5128,3772.8205,3860.5128,3880,3080,4237.4359,7625.1282,4400.5128
4687.6923,4368.7179,3555.3846,7609.7436,3830.2564,3764.1026,3855.3846,3882.0513,3122.5641,4273.3333,7603.5897,4351.7949
4666.6667,4349.7436,3549.2308,7570.7692,3839.4872,3777.4359,3848.2051,3882.5641,3223.0769,4296.9231,7606.6667,4367.6923
4631.7949,4337.9487,3518.9744,7498.9744,3809.2308,3785.641,3836.9231,3863.0769,3348.7179,4261.5385,7607.6923,4367.1795
4619.4872,4333.8462,3509.2308,7449.2308,3805.641,3788.7179,3840.5128,3867.6923,3375.8974,4243.5897,7595.3846,4346.6667
4590.7692,4320,3514.359,7419.4872,3801.5385,3773.3333,3832.8205,3869.7436,3310.2564,4257.4359,7571.7949,4314.359
4554.8718,4314.8718,3512.8205,7358.4615,3793.8462,3758.4615,3829.7436,3873.8462,3272.8205,4277.9487,7559.4872,4284.1026
4568.2051,4305.641,3518.9744,7264.1026,3834.359,3781.5385,3845.641,3888.2051,3238.4615,4278.9744,7562.0513,4285.1282
4570.7692,4292.8205,3525.1282,7176.4103,3854.359,3802.5641,3850.2564,3883.5897,3193.8462,4250.2564,7512.8205,4302.0513
4546.1538,4278.4615,3527.1795,7086.6667,3826.1538,3793.8462,3844.6154,3883.5897,3177.9487,4245.1282,7422.5641,4292.3077
4534.359,4263.0769,3530.2564,6976.9231,3804.1026,3794.359,3847.6923,3890.2564,3151.2821,4255.3846,7348.7179,4254.359
4505.641,4255.3846,3528.2051,6853.3333,3801.5385,3803.5897,3847.6923,3878.4615,3124.1026,4236.9231,7226.1538,4217.4359
4480,4244.1026,3538.4615,6738.4615,3818.4615,3805.1282,3845.1282,3884.1026,3155.3846,4230.7692,7049.7436,4215.3846
4486.6667,4243.0769,3562.5641,6641.5385,3801.0256,3810.2564,3844.1026,3901.0256,3186.6667,4233.3333,6910.7692,4245.641
4134.8718,4132.3077,4155.8974,4175.8974,4147.1795,4156.9231,4148.2051,4153.8462,4166.6667,4168.7179,4129.2308,4220
4133.8462,4133.8462,4149.7436,4173.3333,4132.3077,4143.5897,4141.5385,4148.2051,4138.4615,4154.359,4139.4872,4210.7692
4126.1538,4132.8205,4141.5385,4169.7436,4131.2821,4147.6923,4140,4145.641,4137.9487,4149.7436,4129.7436,4192.8205
4129.7436,4138.9744,4151.2821,4169.7436,4134.8718,4149.2308,4142.5641,4145.641,4152.3077,4162.5641,4112.3077,4178.4615
4134.359,4137.4359,4157.9487,4172.3077,4138.4615,4144.1026,4144.1026,4141.5385,4142.0513,4165.1282,4122.5641,4181.5385
4125.641,4133.3333,4147.6923,4165.1282,4134.8718,4150.7692,4145.1282,4140.5128,4132.3077,4151.2821,4140.5128,4199.4872
4121.5385,4133.3333,4136.4103,4152.8205,4122.5641,4151.7949,4140.5128,4141.5385,4140.5128,4148.7179,4128.7179,4203.5897
4123.0769,4132.8205,4138.4615,4154.359,4125.641,4141.5385,4135.8974,4136.4103,4142.0513,4153.8462,4111.7949,4195.3846
4121.5385,4142.0513,4149.2308,4168.7179,4137.4359,4145.641,4140,4134.359,4140.5128,4154.359,4116.9231,4187.6923
4130.7692,4140,4156.4103,4171.7949,4135.8974,4156.4103,4141.5385,4137.9487,4144.1026,4155.8974,4124.1026,4187.1795
4137.4359,4130.7692,4153.8462,4166.6667,4131.7949,4144.1026,4133.8462,4134.359,4141.5385,4156.4103,4122.0513,4199.4872
4124.1026,4134.8718,4149.2308,4165.641,4136.4103,4133.8462,4128.2051,4126.1538,4144.1026,4154.359,4109.2308,4190.2564
4118.9744,4136.4103,4150.2564,4166.6667,4138.4615,4147.1795,4131.7949,4126.1538,4157.9487,4161.0256,4078.4615,4163.5897
4138.4615,4137.4359,4157.4359,4171.2821,4142.5641,4155.8974,4139.4872,4136.4103,4161.0256,4169.7436,4077.9487,4192.3077
4141.5385,4133.3333,4157.4359,4168.7179,4145.641,4149.2308,4140,4140.5128,4142.5641,4158.9744,4123.5897,4234.359
4120,4129.2308,4143.5897,4157.4359,4137.9487,4144.1026,4134.359,4132.3077,4133.8462,4139.4872,4134.359,4203.5897
4118.4615,4137.9487,4138.9744,4157.4359,4133.8462,4147.1795,4136.9231,4127.6923,4147.1795,4141.5385,4106.1538,4173.3333
4136.9231,4140.5128,4152.8205,4170.7692,4147.6923,4150.7692,4143.5897,4135.8974,4167.1795,4164.1026,4107.1795,4197.9487
4141.5385,4143.0769,4162.0513,4178.9744,4151.7949,4150.7692,4143.0769,4141.5385,4169.7436,4171.7949,4121.5385,4208.7179
4137.4359,4143.0769,4155.3846,4184.1026,4141.5385,4151.7949,4142.0513,4137.4359,4156.9231,4156.9231,4112.8205,4195.3846
4147.6923,4138.4615,4154.8718,4190.7692,4147.1795,4154.359,4145.1282,4135.8974,4158.4615,4155.8974,4111.7949,4197.4359
4160,4138.9744,4161.5385,4188.2051,4154.359,4152.8205,4141.0256,4140,4170.2564,4170.2564,4124.6154,4211.2821
4153.8462,4132.8205,4161.5385,4185.1282,4145.1282,4153.8462,4135.8974,4139.4872,4163.0769,4172.3077,4121.0256,4220.5128
4141.5385,4132.3077,4156.9231,4183.0769,4138.4615,4157.4359,4141.0256,4136.4103,4149.7436,4162.0513,4107.6923,4220
4136.4103,4134.359,4151.2821,4173.8462,4139.4872,4152.8205,4142.5641,4134.8718,4159.4872,4156.4103,4097.9487,4212.3077
4137.4359,4128.2051,4150.7692,4165.1282,4128.7179,4145.1282,4134.8718,4137.4359,4172.8205,4162.0513,4093.8462,4206.6667
4138.9744,4130.7692,4152.8205,4165.641,4116.9231,4147.6923,4136.4103,4139.4872,4164.6154,4170.2564,4097.4359,4199.4872
4136.4103,4136.4103,4152.8205,4169.7436,4130.7692,4154.359,4144.6154,4138.4615,4156.4103,4168.2051,4107.6923,4194.8718
4134.359,4141.5385,4153.3333,4169.7436,4142.5641,4158.4615,4146.6667,4137.4359,4166.6667,4165.641,4103.5897,4206.1538
4137.4359,4138.4615,4149.7436,4169.2308,4130.2564,4167.6923,4144.1026,4137.9487,4174.359,4171.2821,4086.1538,4202.5641
4140.5128,4130.7692,4143.0769,4168.7179,4125.1282,4172.3077,4146.1538,4138.4615,4167.6923,4169.7436,4078.4615,4188.2051
4134.8718,4143.0769,4143.5897,4172.8205,4141.5385,4163.5897,4152.8205,4141.0256,4172.8205,4162.5641,4076.4103,4200
4126.6667,4147.6923,4152.8205,4183.0769,4150.7692,4157.9487,4151.2821,4144.6154,4189.2308,4167.6923,4068.7179,4204.6154
4131.2821,4139.4872,4156.9231,4185.641,4139.4872,4156.9231,4143.5897,4141.5385,4195.3846,4177.4359,4066.6667,4187.1795
4134.359,4137.4359,4148.2051,4179.4872,4133.8462,4152.3077,4141.0256,4137.9487,4183.5897,4168.2051,4076.9231,4189.7436
4124.6154,4139.4872,4137.4359,4183.0769,4144.1026,4153.3333,4140.5128,4137.4359,4167.6923,4151.2821,4074.8718,4200.5128
4123.0769,4144.1026,4141.5385,4192.8205,4146.1538,4158.4615,4139.4872,4135.8974,4169.2308,4154.8718,4055.8974,4191.2821
4138.4615,4135.8974,4153.8462,4189.7436,4138.4615,4155.8974,4137.4359,4139.4872,4181.0256,4167.1795,4064.6154,4198.9744
4141.5385,4134.359,4154.359,4182.0513,4139.4872,4151.7949,4141.5385,4149.2308,4185.1282,4161.0256,4080,4209.7436
4132.8205,4144.6154,4149.7436,4181.5385,4146.1538,4157.4359,4150.7692,4152.8205,4183.5897,4152.3077,4065.641,4194.8718
4142.0513,4138.4615,4154.359,4178.4615,4139.4872,4160,4155.3846,4152.3077,4182.0513,4163.0769,4067.1795,4199.4872
4145.1282,4134.8718,4155.8974,4168.2051,4129.7436,4152.3077,4154.359,4155.3846,4183.5897,4171.2821,4080.5128,4208.7179
4135.3846,4140.5128,4151.2821,4171.7949,4135.3846,4151.7949,4151.7949,4154.359,4196.4103,4167.6923,4059.4872,4189.7436
4147.1795,4142.5641,4154.359,4185.641,4138.9744,4164.1026,4153.3333,4149.2308,4203.0769,4171.2821,4051.2821,4195.3846
4153.3333,4141.5385,4157.9487,4184.6154,4135.3846,4167.1795,4155.8974,4149.2308,4193.8462,4171.2821,4072.8205,4221.0256
4134.359,4137.4359,4152.3077,4177.9487,4141.5385,4166.1538,4154.8718,4152.3077,4194.359,4168.2051,4063.5897,4204.6154
4135.8974,4142.5641,4149.7436,4182.5641,4150.2564,4167.6923,4153.8462,4151.7949,4204.1026,4175.3846,4042.0513,4182.5641
4155.3846,4139.4872,4155.8974,4188.7179,4146.6667,4162.5641,4150.7692,4147.1795,4203.0769,4177.4359,4057.4359,4205.1282
4148.2051,4133.3333,4156.9231,4183.0769,4136.9231,4157.4359,4147.1795,4147.1795,4198.4615,4168.2051,4068.2051,4213.3333
4128.7179,4137.9487,4152.8205,4180.5128,4132.3077,4162.0513,4148.2051,4150.7692,4199.4872,4165.641,4048.2051,4190.7692
4135.8974,4134.8718,4155.3846,4185.1282,4137.4359,4168.2051,4152.8205,4152.8205,4201.0256,4171.2821,4045.641,4194.8718
4149.2308,4134.359,4158.9744,4182.5641,4144.6154,4168.2051,4155.3846,4154.359,4201.5385,4172.8205,4055.8974,4211.7949
4140.5128,4135.3846,4154.359,4173.3333,4145.1282,4172.8205,4153.3333,4151.7949,4205.641,4170.2564,4050.7692,4207.1795
4129.7436,4133.3333,4150.7692,4172.3077,4142.0513,4174.8718,4151.2821,4149.7436,4205.1282,4168.2051,4051.2821,4196.9231
4147.6923,4137.4359,4154.8718,4176.9231,4135.8974,4162.5641,4152.8205,4154.8718,4202.0513,4170.2564,4062.0513,4200
4162.0513,4133.3333,4157.9487,4175.3846,4129.7436,4153.8462,4154.359,4157.9487,4203.0769,4172.3077,4061.5385,4205.641
4140,4134.359,4151.7949,4175.8974,4134.8718,4160,4149.2308,4150.7692,4203.0769,4165.641,4048.7179,4193.8462
4129.7436,4137.9487,4141.5385,4181.0256,4144.6154,4166.6667,4141.0256,4145.1282,4203.0769,4164.6154,4037.4359,4178.9744
4147.1795,4133.8462,4140.5128,4186.1538,4142.0513,4160.5128,4136.4103,4141.5385,4202.0513,4167.6923,4031.2821,4189.7436
4152.3077,4135.8974,4149.2308,4189.7436,4137.9487,4153.8462,4139.4872,4140,4200.5128,4165.641,4035.3846,4211.2821
4157.4359,4131.7949,4156.9231,4190.2564,4140.5128,4156.4103,4146.1538,4148.7179,4202.0513,4167.6923,4047.1795,4209.7436
4160,4132.3077,4150.7692,4186.6667,4137.4359,4158.9744,4144.1026,4149.2308,4200,4170.2564,4049.2308,4195.3846
4143.0769,4138.9744,4143.5897,4187.6923,4137.4359,4157.4359,4140.5128,4144.1026,4201.5385,4166.6667,4043.0769,4199.4872
4144.6154,4136.4103,4153.3333,4194.8718,4146.1538,4162.0513,4144.1026,4150.7692,4210.2564,4172.8205,4039.4872,4202.5641
4157.9487,4138.4615,4155.3846,4200,4142.5641,4162.5641,4145.1282,4149.7436,4209.2308,4175.8974,4033.8462,4186.1538
4144.6154,4141.0256,4137.9487,4209.7436,4132.3077,4157.9487,4140,4140.5128,4200,4157.9487,4033.8462,4180.5128
4135.8974,4142.0513,4137.4359,4220,4135.8974,4159.4872,4141.0256,4142.0513,4210.7692,4154.359,4032.3077,4187.6923
4152.3077,4138.4615,4154.359,4218.9744,4142.5641,4163.5897,4145.1282,4147.6923,4233.8462,4175.3846,4023.5897,4187.1795
4152.3077,4132.3077,4148.7179,4217.4359,4136.4103,4160,4141.0256,4141.5385,4224.6154,4170.7692,4025.641,4188.2051
4125.1282,4139.4872,4134.8718,4218.4615,4134.359,4153.3333,4136.9231,4133.8462,4194.8718,4149.7436,4031.2821,4183.0769
4117.4359,4138.4615,4137.9487,4205.641,4134.8718,4152.3077,4136.4103,4131.2821,4190.2564,4149.7436,4025.641,4171.2821
4129.2308,4132.8205,4141.5385,4187.6923,4123.5897,4147.1795,4133.3333,4132.8205,4198.4615,4148.7179,4020.5128,4171.7949
4125.1282,4138.9744,4137.4359,4188.2051,4118.9744,4142.5641,4126.6667,4136.4103,4196.4103,4138.4615,4020.5128,4168.2051
4120,4139.4872,4138.4615,4191.7949,4129.2308,4139.4872,4125.1282,4134.359,4196.4103,4141.0256,4019.4872,4163.0769
4127.6923,4137.4359,4142.5641,4185.641,4127.1795,4136.9231,4127.1795,4128.7179,4196.9231,4145.1282,4021.0256,4173.3333
4128.7179,4132.8205,4140.5128,4184.1026,4116.4103,4137.9487,4122.5641,4122.0513,4185.641,4137.4359,4024.1026,4177.9487
4115.3846,4133.8462,4136.4103,4182.5641,4117.9487,4138.4615,4120,4118.9744,4183.0769,4133.3333,4020.5128,4157.4359
4114.359,4137.4359,4136.4103,4172.3077,4121.0256,4133.3333,4124.6154,4121.5385,4188.7179,4138.4615,4020,4150.7692
4121.5385,4129.7436,4134.8718,4166.1538,4118.4615,4131.2821,4125.1282,4121.5385,4186.6667,4139.4872,4022.5641,4167.1795
4113.3333,4132.3077,4129.7436,4168.7179,4114.8718,4135.3846,4121.5385,4118.4615,4182.5641,4130.2564,4013.8462,4157.4359
4114.8718,4136.9231,4132.8205,4169.7436,4111.2821,4133.3333,4122.0513,4119.4872,4182.5641,4128.7179,4006.1538,4138.4615
4125.641,4133.3333,4142.0513,4167.6923,4112.3077,4129.7436,4125.641,4123.5897,4184.1026,4141.5385,4016.4103,4150.7692
4125.1282,4134.8718,4142.0513,4169.2308,4119.4872,4134.8718,4125.641,4123.5897,4183.5897,4142.0513,4027.1795,4165.641
4120.5128,4132.3077,4139.4872,4172.8205,4126.6667,4138.4615,4124.6154,4121.0256,4182.5641,4135.8974,4014.8718,4162.0513
4122.5641,4133.3333,4145.1282,4170.7692,4118.9744,4130.7692,4124.6154,4121.5385,4183.5897,4140.5128,3994.359,4164.1026
4126.6667,4131.7949,4147.1795,4162.5641,4109.7436,4127.1795,4127.6923,4121.5385,4183.0769,4140.5128,4004.1026,4171.2821
4125.1282,4125.1282,4141.0256,4154.8718,4109.2308,4129.7436,4124.6154,4118.9744,4180.5128,4133.8462,4020,4160
4120.5128,4129.2308,4137.4359,4150.7692,4105.1282,4123.0769,4118.4615,4116.9231,4185.1282,4136.4103,4003.0769,4140.5128
4120.5128,4129.7436,4138.9744,4149.2308,4103.0769,4120.5128,4127.6923,4120,4186.1538,4137.9487,3992.3077,4138.4615
4132.3077,4129.2308,4140.5128,4150.2564,4107.1795,4129.2308,4136.4103,4123.0769,4177.4359,4136.9231,4011.7949,4150.2564
4131.7949,4131.7949,4135.8974,4151.7949,4102.5641,4131.2821,4128.2051,4121.5385,4172.3077,4137.4359,4015.3846,4150.7692
4114.8718,4132.3077,4129.2308,4152.8205,4101.5385,4132.3077,4126.1538,4117.4359,4171.2821,4134.359,3998.4615,4141.0256
4124.1026,4136.9231,4131.2821,4156.4103,4121.0256,4144.1026,4138.9744,4123.5897,4175.8974,4133.8462,4005.1282,4147.6923
4146.1538,4136.9231,4140.5128,4167.6923,4135.3846,4151.2821,4142.5641,4132.3077,4186.6667,4139.4872,4025.1282,4165.641
4134.8718,4135.8974,4140,4172.3077,4128.2051,4145.641,4136.4103,4129.2308,4185.1282,4137.9487,4014.8718,4154.359
4118.4615,4130.7692,4136.4103,4160.5128,4120,4139.4872,4134.359,4125.641,4172.3077,4137.9487,3993.3333,4122.5641
4129.2308,4124.6154,4140.5128,4152.3077,4118.9744,4136.4103,4134.359,4127.1795,4170.2564,4143.5897,3999.4872,4128.7179
4127.6923,4133.3333,4138.9744,4154.359,4115.8974,4136.4103,4136.4103,4126.6667,4172.3077,4135.8974,4008.2051,4153.8462
4108.2051,4131.2821,4126.6667,4148.7179,4111.7949,4144.6154,4137.4359,4122.5641,4165.1282,4124.6154,3996.9231,4143.0769
4107.1795,4126.6667,4124.1026,4139.4872,4114.359,4148.7179,4135.8974,4121.0256,4172.3077,4130.2564,3991.2821,4124.6154
4126.1538,4132.3077,4134.359,4142.0513,4124.1026,4146.6667,4137.9487,4129.7436,4186.6667,4141.0256,4005.641,4143.0769
4128.7179,4130.7692,4133.3333,4143.0769,4127.6923,4149.2308,4140.5128,4134.8718,4179.4872,4140.5128,4007.1795,4148.7179
4108.7179,4133.8462,4120,4135.8974,4118.9744,4146.6667,4139.4872,4124.6154,4169.2308,4132.3077,3987.1795,4118.4615
4107.6923,4133.3333,4120.5128,4141.0256,4120.5128,4139.4872,4135.8974,4123.0769,4181.0256,4132.3077,3984.1026,4120
4132.3077,4133.3333,4135.8974,4155.8974,4134.359,4141.5385,4140.5128,4138.9744,4198.9744,4147.6923,4002.5641,4153.3333
4144.1026,4139.4872,4143.0769,4160.5128,4134.8718,4150.2564,4150.7692,4144.1026,4201.0256,4157.9487,4006.1538,4151.2821
4137.4359,4134.8718,4137.9487,4155.8974,4124.1026,4153.3333,4151.2821,4137.4359,4197.4359,4152.8205,4000,4129.2308
4139.4872,4133.8462,4138.4615,4154.359,4123.0769,4149.2308,4150.7692,4143.0769,4201.0256,4153.3333,4017.4359,4142.5641
4139.4872,4132.8205,4142.0513,4151.7949,4124.6154,4144.1026,4154.359,4146.6667,4201.5385,4157.9487,4036.9231,4161.5385
4133.3333,4129.7436,4138.9744,4141.5385,4118.4615,4140.5128,4150.2564,4142.0513,4198.4615,4154.359,4024.1026,4149.7436
4134.8718,4131.7949,4137.9487,4136.9231,4114.359,4140,4145.641,4141.0256,4195.8974,4153.3333,4008.2051,4135.3846
4128.2051,4127.6923,4136.9231,4140,4114.8718,4137.9487,4147.1795,4140,4187.6923,4155.3846,4009.2308,4135.3846
4115.8974,4132.3077,4134.8718,4138.9744,4118.9744,4140.5128,4151.2821,4137.9487,4182.5641,4153.8462,4006.1538,4132.8205
4121.5385,4134.8718,4138.4615,4137.9487,4125.1282,4154.359,4155.8974,4141.0256,4194.359,4158.4615,4006.1538,4126.6667
4126.1538,4128.2051,4135.8974,4140.5128,4120.5128,4155.8974,4150.7692,4135.8974,4196.4103,4154.8718,4007.6923,4122.5641
4116.9231,4131.2821,4123.5897,4139.4872,4118.9744,4148.7179,4144.1026,4125.1282,4185.1282,4138.4615,3995.8974,4122.0513
4121.5385,4132.8205,4122.5641,4137.4359,4127.6923,4153.3333,4149.2308,4131.2821,4185.1282,4137.4359,3991.2821,4125.641
4125.1282,4133.8462,4127.1795,4140.5128,4123.5897,4151.2821,4149.7436,4134.8718,4187.1795,4144.1026,4000.5128,4125.641
4120,4129.7436,4124.6154,4141.5385,4115.8974,4138.9744,4143.0769,4127.1795,4184.1026,4138.9744,4004.6154,4127.1795
4122.0513,4126.1538,4123.5897,4138.4615,4125.641,4144.6154,4145.1282,4130.7692,4185.641,4136.4103,4000.5128,4129.7436
4115.8974,4133.8462,4124.1026,4137.4359,4131.7949,4155.3846,4148.7179,4138.4615,4183.5897,4137.4359,3995.3846,4117.4359
4109.7436,4132.3077,4123.0769,4138.9744,4127.6923,4151.2821,4148.7179,4136.4103,4181.0256,4134.8718,3989.2308,4108.2051
4117.4359,4130.7692,4128.2051,4140.5128,4122.5641,4144.6154,4149.7436,4133.8462,4186.6667,4138.9744,3988.2051,4119.4872
4112.8205,4130.7692,4126.6667,4136.4103,4115.3846,4141.5385,4143.0769,4128.7179,4187.6923,4142.0513,3988.2051,4119.4872
4099.4872,4126.1538,4116.4103,4131.2821,4112.8205,4138.4615,4135.8974,4120.5128,4181.5385,4137.9487,3986.1538,4105.641
4109.2308,4130.7692,4121.5385,4132.8205,4114.8718,4136.9231,4138.9744,4122.5641,4182.0513,4145.641,3993.3333,4120.5128
4125.1282,4130.2564,4137.9487,4136.9231,4114.8718,4137.9487,4141.5385,4131.2821,4193.3333,4157.4359,4002.0513,4147.1795
4123.0769,4130.2564,4138.9744,4138.9744,4120.5128,4142.5641,4141.0256,4135.3846,4199.4872,4156.9231,3996.4103,4137.4359
4118.9744,4131.2821,4129.2308,4135.3846,4125.1282,4149.7436,4145.641,4138.9744,4190.2564,4153.8462,3992.3077,4116.9231
4108.7179,4126.6667,4121.5385,4127.1795,4113.3333,4146.6667,4147.1795,4136.4103,4185.1282,4150.7692,3992.8205,4117.9487
4105.1282,4132.3077,4122.5641,4122.0513,4103.0769,4139.4872,4143.0769,4133.8462,4198.4615,4150.7692,3984.1026,4122.5641
4121.0256,4132.8205,4130.7692,4124.6154,4108.7179,4141.0256,4140,4137.9487,4203.5897,4161.0256,3987.1795,4126.1538
4125.1282,4131.7949,4130.2564,4127.6923,4108.2051,4140.5128,4141.0256,4135.8974,4189.2308,4160,3999.4872,4126.1538
4110.2564,4132.3077,4114.8718,4124.1026,4103.0769,4137.4359,4137.9487,4124.6154,4182.5641,4140,3995.3846,4118.9744
4103.0769,4125.641,4106.6667,4122.5641,4111.7949,4138.4615,4135.8974,4120.5128,4186.1538,4132.3077,3989.2308,4116.4103
4104.6154,4130.2564,4113.8462,4126.1538,4121.5385,4134.359,4137.9487,4123.0769,4188.2051,4141.0256,3991.7949,4118.9744
4105.641,4134.8718,4120,4134.8718,4121.5385,4131.7949,4136.4103,4120,4191.2821,4142.0513,3991.7949,4123.0769
4113.3333,4133.3333,4120,4142.5641,4123.5897,4133.3333,4133.8462,4120,4200.5128,4138.9744,3984.1026,4132.3077
4116.4103,4133.3333,4121.0256,4144.1026,4127.1795,4142.0513,4138.9744,4126.1538,4207.1795,4142.0513,3987.6923,4135.3846
4117.4359,4129.2308,4122.5641,4140.5128,4120.5128,4155.8974,4140,4126.1538,4203.0769,4143.5897,4005.1282,4132.3077
4117.4359,4132.3077,4123.0769,4137.4359,4107.6923,4146.1538,4134.359,4121.5385,4197.9487,4136.9231,4008.7179,4134.359
4112.8205,4133.8462,4120,4141.0256,4106.1538,4124.1026,4130.7692,4120.5128,4197.9487,4138.4615,4001.0256,4141.5385
4116.9231,4130.7692,4117.4359,4137.4359,4110.2564,4126.6667,4128.2051,4115.8974,4201.0256,4150.7692,4002.5641,4144.6154
4118.9744,4132.8205,4114.359,4125.641,4105.641,4135.3846,4120.5128,4106.6667,4198.4615,4149.7436,4000.5128,4132.8205
4116.9231,4131.7949,4118.4615,4129.2308,4105.641,4131.2821,4123.5897,4112.3077,4198.9744,4144.1026,3997.9487,4125.1282
4117.4359,4138.4615,4133.3333,4141.0256,4118.4615,4136.9231,4140,4126.6667,4212.8205,4156.4103,4007.6923,4131.7949
4116.9231,4137.9487,4140,4141.0256,4127.1795,4144.6154,4137.9487,4123.5897,4212.8205,4158.9744,4011.7949,4137.4359
4112.3077,4130.7692,4134.8718,4138.9744,4123.0769,4140,4120.5128,4114.8718,4198.9744,4145.1282,4006.1538,4127.1795
4111.7949,4136.4103,4138.4615,4144.1026,4121.5385,4136.9231,4126.1538,4124.1026,4205.641,4147.6923,4004.6154,4121.0256
4109.2308,4134.359,4138.9744,4141.0256,4125.1282,4133.8462,4135.3846,4126.1538,4212.8205,4151.7949,3995.8974,4122.5641
4098.9744,4130.2564,4127.1795,4128.7179,4121.0256,4124.1026,4123.0769,4108.7179,4190.7692,4131.2821,3992.8205,4123.5897
4100,4131.2821,4128.2051,4122.5641,4111.7949,4112.8205,4114.8718,4096.9231,4182.0513,4123.5897,4004.6154,4125.641
4105.641,4129.2308,4139.4872,4123.0769,4106.1538,4113.3333,4119.4872,4091.7949,4202.5641,4136.9231,3998.4615,4117.9487
4111.2821,4131.2821,4133.3333,4120.5128,4104.6154,4132.8205,4120,4087.6923,4198.4615,4134.8718,3981.0256,4107.1795
4099.4872,4130.7692,4120,4118.9744,4109.2308,4140.5128,4117.4359,4093.8462,4172.3077,4120,3981.5385,4096.4103
4092.8205,4134.359,4124.6154,4127.1795,4118.4615,4119.4872,4120,4105.1282,4171.2821,4124.6154,4002.0513,4095.3846
4127.1795,4140.5128,4140,4145.641,4125.641,4101.5385,4120.5128,4107.6923,4189.2308,4141.0256,4028.2051,4128.2051
4147.6923,4141.5385,4142.0513,4162.5641,4124.6154,4101.0256,4114.359,4105.641,4192.3077,4144.6154,4034.359,4149.2308
4121.5385,4145.641,4128.2051,4165.641,4125.641,4104.1026,4114.359,4102.5641,4184.6154,4136.4103,4024.6154,4121.5385
4107.6923,4139.4872,4120.5128,4161.0256,4131.7949,4110.2564,4117.9487,4095.8974,4178.4615,4128.2051,4030.7692,4106.6667
4115.8974,4137.4359,4123.0769,4154.359,4119.4872,4106.6667,4110.7692,4089.7436,4163.5897,4115.8974,4040,4126.6667
4103.5897,4137.9487,4122.0513,4143.5897,4100,4093.3333,4101.0256,4088.7179,4147.6923,4103.5897,4034.359,4124.6154
4091.2821,4126.6667,4120.5128,4127.1795,4102.5641,4105.1282,4107.6923,4093.8462,4148.2051,4102.5641,4042.0513,4113.8462
4089.7436,4127.6923,4121.0256,4111.2821,4104.1026,4120.5128,4114.8718,4096.9231,4151.7949,4111.2821,4050.7692,4115.3846
4089.2308,4130.2564,4120,4105.641,4089.7436,4106.1538,4108.7179,4091.7949,4147.6923,4121.5385,4040.5128,4105.1282
4103.0769,4126.1538,4125.1282,4104.1026,4086.6667,4093.3333,4105.641,4090.2564,4152.3077,4129.7436,4037.4359,4101.5385
4105.1282,4130.2564,4128.2051,4095.8974,4094.8718,4104.1026,4108.2051,4095.3846,4155.3846,4127.6923,4042.0513,4107.1795
4099.4872,4131.7949,4125.641,4090.7692,4096.9231,4112.3077,4109.2308,4095.8974,4145.1282,4121.5385,4037.9487,4113.8462
4106.1538,4134.8718,4127.1795,4092.8205,4097.9487,4103.0769,4111.7949,4092.8205,4147.6923,4130.7692,4021.5385,4116.4103
4109.2308,4129.2308,4128.2051,4089.7436,4096.9231,4094.8718,4112.3077,4092.8205,4156.9231,4135.8974,4008.7179,4109.7436
4098.4615,4127.1795,4121.0256,4091.7949,4089.2308,4095.8974,4109.7436,4093.3333,4151.2821,4124.1026,4014.8718,4107.1795
4095.3846,4134.8718,4114.359,4105.641,4088.2051,4100.5128,4112.3077,4091.2821,4146.6667,4117.9487,4022.0513,4115.3846
4107.6923,4130.2564,4116.9231,4108.7179,4096.9231,4105.641,4120,4095.8974,4156.9231,4124.6154,4022.0513,4120.5128
4106.6667,4130.2564,4116.9231,4103.5897,4103.5897,4106.1538,4123.5897,4105.641,4159.4872,4124.1026,4015.8974,4110.2564
4094.8718,4132.8205,4110.7692,4104.6154,4109.2308,4111.2821,4123.5897,4108.2051,4154.359,4118.9744,4013.3333,4106.1538
4095.3846,4130.7692,4105.641,4105.641,4110.7692,4122.5641,4124.1026,4104.6154,4162.5641,4119.4872,4015.8974,4114.359
4100,4132.3077,4105.1282,4103.5897,4099.4872,4125.641,4125.641,4104.1026,4167.1795,4120.5128,4010.7692,4116.4103
4101.0256,4130.2564,4111.7949,4107.6923,4092.3077,4120,4123.0769,4107.1795,4162.0513,4129.2308,4009.7436,4118.4615
4100.5128,4133.8462,4118.4615,4108.7179,4106.1538,4120.5128,4122.5641,4105.641,4161.5385,4135.3846,4012.3077,4118.4615
4107.1795,4133.3333,4120.5128,4106.6667,4109.7436,4125.1282,4129.7436,4107.6923,4170.2564,4137.4359,4005.1282,4113.8462
4111.7949,4128.7179,4121.5385,4113.3333,4096.4103,4121.0256,4137.4359,4116.4103,4172.8205,4147.6923,3998.4615,4116.9231
4106.1538,4132.3077,4123.5897,4117.4359,4098.9744,4117.9487,4136.4103,4117.4359,4170.2564,4146.6667,4005.641,4126.6667
4102.5641,4129.2308,4122.5641,4111.7949,4108.7179,4121.0256,4133.3333,4109.7436,4169.7436,4132.8205,4012.3077,4127.6923
4106.1538,4126.6667,4119.4872,4108.7179,4103.5897,4123.5897,4137.4359,4114.359,4170.2564,4131.2821,4011.2821,4124.6154
4104.6154,4126.6667,4121.0256,4107.6923,4101.5385,4124.1026,4138.4615,4122.0513,4173.3333,4137.4359,4016.4103,4124.1026
4095.8974,4126.6667,4120.5128,4104.6154,4106.6667,4120.5128,4129.2308,4109.7436,4174.359,4135.8974,4012.8205,4119.4872
4100,4130.2564,4119.4872,4104.6154,4103.5897,4117.9487,4128.7179,4104.1026,4172.8205,4136.4103,4010.2564,4126.1538
4113.8462,4126.1538,4120,4107.1795,4100.5128,4122.0513,4134.8718,4115.8974,4175.8974,4141.5385,4020,4135.3846
4117.4359,4130.2564,4122.5641,4111.7949,4105.641,4125.1282,4136.9231,4121.0256,4185.641,4144.1026,4020.5128,4130.2564
4125.1282,4134.8718,4126.6667,4120.5128,4107.6923,4118.9744,4134.8718,4120,4187.6923,4144.6154,4017.4359,4137.9487
4128.2051,4126.6667,4125.1282,4122.0513,4104.6154,4116.9231,4130.7692,4116.4103,4175.3846,4136.9231,4015.8974,4135.3846
4110.7692,4131.2821,4123.0769,4121.0256,4111.7949,4122.5641,4129.2308,4108.7179,4172.3077,4138.4615,3996.9231,4106.6667
4108.7179,4134.359,4131.2821,4133.3333,4126.1538,4129.2308,4135.3846,4112.3077,4186.1538,4156.9231,3990.2564,4114.359
4123.0769,4130.7692,4140,4143.5897,4125.641,4133.3333,4141.0256,4125.1282,4190.7692,4156.4103,4024.1026,4153.3333
4120,4131.2821,4134.359,4135.8974,4118.9744,4135.3846,4139.4872,4124.1026,4182.5641,4139.4872,4046.1538,4157.4359
4112.3077,4130.7692,4125.1282,4126.6667,4124.6154,4137.9487,4137.4359,4114.359,4181.5385,4135.3846,4031.7949,4137.4359
4116.9231,4133.3333,4124.1026,4129.2308,4125.1282,4130.7692,4134.8718,4111.7949,4185.641,4138.9744,4021.5385,4131.2821
4105.1282,4142.0513,4123.0769,4173.3333,4148.2051,4107.6923,4126.1538,4111.2821,4185.641,4134.359,4010.7692,4101.5385
4078.9744,4137.4359,4118.4615,4162.5641,4146.6667,4109.2308,4123.5897,4111.7949,4170.7692,4132.3077,4027.1795,4088.7179
4093.3333,4129.2308,4125.1282,4151.7949,4141.0256,4107.1795,4123.5897,4115.8974,4169.2308,4129.2308,4051.2821,4120
4082.0513,4135.8974,4119.4872,4144.1026,4132.8205,4097.4359,4116.9231,4109.7436,4163.5897,4120,4040,4108.2051
4046.1538,4135.3846,4105.1282,4137.4359,4130.2564,4095.3846,4111.2821,4097.4359,4150.2564,4109.2308,4032.3077,4068.7179
4048.7179,4134.8718,4106.1538,4143.5897,4136.4103,4099.4872,4115.8974,4098.4615,4149.7436,4103.5897,4053.3333,4078.4615
4065.641,4133.8462,4112.3077,4152.8205,4142.5641,4098.9744,4120,4107.6923,4162.5641,4112.8205,4057.4359,4097.9487
4053.3333,4133.3333,4111.2821,4153.8462,4141.5385,4094.359,4115.8974,4107.1795,4160,4121.5385,4046.1538,4084.6154
4043.0769,4137.4359,4108.2051,4153.8462,4136.4103,4092.8205,4114.8718,4098.9744,4150.7692,4121.5385,4056.4103,4080
4061.0256,4132.3077,4112.3077,4149.7436,4130.7692,4093.8462,4116.9231,4096.4103,4158.4615,4123.5897,4064.1026,4094.8718
4062.0513,4131.2821,4108.2051,4135.3846,4120.5128,4089.2308,4113.3333,4098.4615,4162.0513,4117.9487,4044.1026,4084.1026
4034.359,4129.7436,4092.3077,4123.0769,4110.2564,4087.6923,4106.6667,4094.359,4153.8462,4104.1026,4025.1282,4057.4359
4025.1282,4125.641,4090.2564,4120.5128,4108.7179,4096.9231,4107.1795,4087.1795,4154.8718,4102.0513,4022.0513,4053.3333
4054.8718,4129.2308,4106.1538,4123.0769,4114.8718,4101.0256,4114.359,4095.3846,4157.9487,4115.3846,4036.9231,4073.8462
4072.3077,4128.2051,4109.7436,4123.0769,4120,4093.8462,4119.4872,4107.1795,4152.8205,4116.9231,4053.3333,4091.7949
4048.2051,4129.2308,4096.9231,4120.5128,4117.9487,4088.7179,4122.5641,4099.4872,4153.3333,4107.1795,4045.641,4089.7436
4035.8974,4129.7436,4098.9744,4127.1795,4118.4615,4090.2564,4120,4093.3333,4154.8718,4112.8205,4031.7949,4075.3846
4058.9744,4128.2051,4109.7436,4140,4129.2308,4098.9744,4120,4106.1538,4156.9231,4126.6667,4036.4103,4071.2821
4067.1795,4131.2821,4110.2564,4143.0769,4133.8462,4102.5641,4125.1282,4110.7692,4167.1795,4125.1282,4045.1282,4093.3333
4042.0513,4124.1026,4104.6154,4136.4103,4125.641,4094.8718,4122.0513,4096.9231,4173.8462,4116.4103,4026.6667,4088.2051
4034.359,4121.5385,4101.5385,4128.2051,4115.3846,4094.359,4121.0256,4097.9487,4169.7436,4122.5641,4010.2564,4060
4063.0769,4123.0769,4107.1795,4119.4872,4111.2821,4103.0769,4132.8205,4110.7692,4160.5128,4125.1282,4033.3333,4076.4103
4070.7692,4121.0256,4110.2564,4115.8974,4107.6923,4102.0513,4136.4103,4106.1538,4152.8205,4111.2821,4049.2308,4096.9231
4046.6667,4126.1538,4106.6667,4117.9487,4100.5128,4101.0256,4126.1538,4097.9487,4153.8462,4108.7179,4031.2821,4066.1538
4055.3846,4123.0769,4106.1538,4118.9744,4097.4359,4107.1795,4122.5641,4097.4359,4159.4872,4123.5897,4033.8462,4058.4615
4083.0769,4123.0769,4108.7179,4120,4099.4872,4106.6667,4127.6923,4096.9231,4159.4872,4129.2308,4048.7179,4091.2821
4058.9744,4130.7692,4103.0769,4125.641,4104.6154,4106.1538,4127.1795,4096.4103,4156.4103,4118.9744,4030.2564,4082.0513
4037.4359,4131.7949,4104.6154,4143.5897,4118.9744,4107.6923,4124.6154,4102.0513,4156.4103,4118.9744,4025.1282,4063.5897
4069.7436,4137.4359,4122.5641,4168.2051,4135.3846,4105.1282,4132.3077,4114.8718,4165.1282,4134.8718,4048.2051,4098.4615
4078.9744,4136.9231,4128.7179,4184.1026,4144.1026,4109.7436,4141.5385,4124.1026,4174.8718,4143.0769,4049.2308,4117.9487
4046.6667,4134.359,4115.3846,4186.6667,4146.1538,4112.3077,4136.9231,4118.9744,4166.6667,4130.2564,4035.3846,4090.7692
4041.0256,4133.8462,4106.1538,4181.5385,4147.1795,4107.1795,4127.6923,4109.7436,4154.8718,4116.9231,4037.4359,4083.5897
4052.8205,4127.1795,4107.6923,4169.2308,4137.9487,4110.7692,4129.7436,4112.3077,4158.9744,4121.5385,4048.2051,4104.1026
4039.4872,4130.2564,4109.7436,4153.8462,4124.1026,4114.8718,4139.4872,4114.359,4166.6667,4123.5897,4040.5128,4098.4615
4035.3846,4131.7949,4115.3846,4150.2564,4124.1026,4106.1538,4138.4615,4107.1795,4168.7179,4121.0256,4022.0513,4078.4615
4065.641,4130.7692,4125.641,4154.8718,4123.5897,4100,4132.3077,4104.1026,4169.7436,4127.6923,4027.1795,4088.7179
4077.9487,4131.2821,4125.641,4149.2308,4113.3333,4105.641,4126.6667,4096.4103,4167.6923,4127.1795,4042.0513,4113.3333
4052.8205,4126.1538,4110.7692,4143.5897,4110.7692,4112.3077,4120.5128,4083.5897,4165.641,4119.4872,4026.6667,4104.6154
4050.2564,4131.7949,4110.2564,4152.8205,4121.5385,4111.7949,4125.1282,4083.0769,4168.7179,4126.6667,4015.3846,4082.5641
4080,4131.7949,4130.7692,4164.1026,4129.2308,4115.8974,4137.4359,4095.3846,4176.4103,4140,4046.6667,4099.4872
4082.0513,4125.641,4133.8462,4159.4872,4125.641,4121.0256,4140.5128,4103.5897,4182.0513,4139.4872,4064.6154,4124.6154
4066.6667,4130.7692,4121.5385,4150.2564,4122.0513,4121.5385,4143.5897,4105.1282,4184.6154,4136.4103,4055.8974,4119.4872
4079.4872,4130.7692,4129.2308,4154.359,4124.6154,4127.1795,4151.7949,4109.2308,4186.6667,4142.0513,4063.0769,4114.359
4088.2051,4133.8462,4133.8462,4153.8462,4126.1538,4132.3077,4147.6923,4105.1282,4182.5641,4138.9744,4063.5897,4111.7949
4074.8718,4132.8205,4114.8718,4141.0256,4126.1538,4127.1795,4135.8974,4094.359,4174.8718,4124.1026,4043.5897,4102.5641
4078.9744,4130.2564,4110.7692,4142.5641,4126.6667,4126.1538,4137.9487,4089.2308,4176.4103,4123.0769,4030.7692,4089.7436
4098.9744,4135.3846,4122.0513,4156.9231,4125.1282,4135.8974,4141.0256,4084.6154,4178.4615,4128.2051,4031.2821,4084.6154
4109.2308,4130.7692,4123.5897,4157.4359,4120.5128,4133.8462,4136.4103,4076.4103,4174.8718,4125.641,4038.9744,4107.1795
4109.2308,4131.7949,4122.5641,4146.1538,4109.7436,4122.5641,4137.4359,4073.3333,4182.5641,4131.7949,4036.4103,4126.1538
4111.7949,4134.8718,4128.2051,4143.0769,4100,4119.4872,4138.4615,4074.8718,4188.7179,4140.5128,4031.7949,4122.0513
4115.3846,4127.6923,4131.7949,4144.6154,4098.9744,4123.0769,4136.4103,4073.3333,4179.4872,4129.2308,4048.7179,4122.0513
4102.0513,4123.5897,4126.6667,4129.7436,4101.5385,4128.7179,4140.5128,4076.9231,4176.9231,4114.8718,4059.4872,4122.5641
4064.6154,4114.359,4113.3333,4091.2821,4092.3077,4129.7436,4141.0256,4076.9231,4164.6154,4107.6923,4047.1795,4097.4359
4044.1026,4112.3077,4097.9487,4070.2564,4088.7179,4129.7436,4138.4615,4072.8205,4148.7179,4100.5128,4038.4615,4072.8205
4054.359,4115.3846,4094.359,4069.2308,4102.5641,4136.9231,4146.1538,4081.0256,4170.2564,4107.6923,4021.5385,4057.9487
4033.8462,4105.641,4092.3077,4025.641,4093.3333,4142.5641,4146.6667,4082.0513,4171.2821,4108.2051,3996.9231,4030.2564
3987.1795,4101.0256,4077.4359,3973.8462,4066.6667,4138.9744,4133.8462,4065.641,4128.2051,4080.5128,3996.9231,4012.8205
3980.5128,4105.1282,4065.1282,3985.641,4077.9487,4134.359,4132.3077,4065.641,4121.0256,4064.6154,4003.5897,4016.4103
3985.1282,4109.7436,4055.8974,3995.3846,4094.359,4127.1795,4140.5128,4076.4103,4138.9744,4065.1282,3989.2308,4002.0513
3956.4103,4103.5897,4040.5128,3959.4872,4078.4615,4120.5128,4137.9487,4070.7692,4123.5897,4054.8718,3978.4615,3969.2308
3931.2821,4095.3846,4033.3333,3929.7436,4062.5641,4124.6154,4132.8205,4068.7179,4115.3846,4047.6923,3978.9744,3955.3846
3917.9487,4100,4034.8718,3904.6154,4043.5897,4124.6154,4135.8974,4070.2564,4123.0769,4048.2051,3973.3333,3952.3077
3910.2564,4091.7949,4032.8205,3877.9487,4023.0769,4120,4135.8974,4067.1795,4118.9744,4049.7436,3970.7692,3945.1282
3914.359,4088.7179,4037.9487,3872.3077,4034.8718,4123.5897,4136.4103,4079.4872,4127.6923,4062.5641,3976.4103,3949.2308
3912.8205,4098.4615,4041.5385,3852.3077,4043.0769,4130.2564,4142.5641,4096.4103,4136.9231,4067.1795,3974.8718,3948.7179
3894.8718,4092.8205,4025.1282,3818.4615,4022.0513,4125.641,4144.6154,4092.3077,4121.0256,4051.7949,3968.2051,3932.3077
3888.7179,4088.7179,4016.9231,3820,4016.4103,4117.4359,4140,4087.1795,4113.8462,4050.2564,3967.6923,3926.6667
3897.9487,4087.6923,4031.2821,3830.2564,4027.6923,4120,4137.9487,4093.3333,4135.3846,4065.1282,3969.2308,3940.5128
3897.4359,4087.1795,4036.9231,3814.8718,4022.5641,4122.0513,4140,4094.8718,4148.7179,4065.1282,3961.0256,3944.6154
3893.3333,4091.2821,4028.7179,3807.1795,4023.0769,4120,4138.4615,4089.2308,4141.0256,4056.9231,3954.359,3941.0256
4265.641,4141.0256,4157.4359,4293.3333,4224.6154,4187.1795,4169.2308,4188.2051,4011.2821,4192.3077,4633.8462,4239.4872
4241.5385,4143.5897,4142.0513,4283.0769,4215.8974,4184.6154,4163.5897,4185.641,3996.9231,4173.3333,4621.0256,4242.0513
4214.8718,4135.3846,4123.0769,4268.2051,4207.1795,4185.641,4157.9487,4181.0256,3990.2564,4160,4598.9744,4203.5897
4237.4359,4137.4359,4130.7692,4262.0513,4201.5385,4184.1026,4155.8974,4175.3846,3991.7949,4164.1026,4598.9744,4208.7179
4245.641,4143.5897,4137.4359,4263.5897,4207.6923,4179.4872,4153.8462,4172.8205,3999.4872,4169.7436,4585.641,4219.4872
4215.3846,4141.5385,4124.6154,4269.2308,4211.2821,4177.9487,4153.3333,4172.8205,4002.0513,4167.1795,4551.7949,4202.5641
4221.5385,4142.0513,4124.1026,4277.9487,4212.3077,4181.5385,4156.9231,4172.8205,3998.4615,4169.2308,4554.8718,4212.3077
4247.6923,4137.9487,4131.7949,4284.1026,4226.1538,4183.5897,4156.4103,4169.7436,3994.8718,4174.8718,4573.3333,4222.0513
4233.8462,4140,4125.641,4284.1026,4226.1538,4174.8718,4152.8205,4165.641,3995.8974,4171.2821,4568.7179,4203.5897
4220.5128,4141.0256,4121.0256,4280.5128,4213.8462,4168.2051,4151.7949,4164.6154,3997.4359,4167.6923,4558.9744,4197.4359
4226.6667,4132.8205,4119.4872,4270.2564,4221.0256,4177.9487,4153.8462,4168.2051,4000,4169.7436,4558.4615,4212.3077
4226.6667,4135.8974,4108.7179,4253.8462,4227.1795,4182.5641,4155.8974,4171.7949,4007.1795,4172.8205,4555.8974,4228.2051
4215.3846,4135.3846,4098.9744,4241.5385,4213.8462,4172.8205,4153.3333,4169.7436,4005.641,4171.2821,4543.5897,4221.0256
4199.4872,4135.3846,4095.8974,4235.8974,4208.2051,4172.8205,4151.7949,4164.6154,4000.5128,4168.2051,4517.9487,4198.4615
4201.5385,4138.9744,4096.4103,4231.7949,4210.2564,4184.6154,4161.0256,4167.6923,4011.7949,4175.3846,4491.2821,4196.9231
4223.5897,4136.4103,4107.1795,4233.3333,4204.6154,4190.2564,4165.1282,4177.9487,4028.7179,4189.7436,4494.8718,4226.1538
4229.7436,4140.5128,4109.7436,4242.0513,4204.6154,4185.1282,4158.9744,4176.9231,4027.6923,4189.2308,4508.2051,4238.4615
4214.359,4140,4094.8718,4243.5897,4208.2051,4176.4103,4151.2821,4161.0256,4016.9231,4182.0513,4485.1282,4209.7436
4209.7436,4136.4103,4085.1282,4236.9231,4207.1795,4172.3077,4144.6154,4154.359,4018.4615,4183.5897,4446.1538,4197.4359
4220,4140,4084.1026,4229.2308,4209.2308,4172.8205,4144.6154,4165.641,4021.5385,4178.9744,4448.7179,4223.5897
4218.9744,4139.4872,4078.4615,4225.1282,4210.7692,4176.9231,4152.8205,4173.8462,4018.4615,4166.1538,4476.9231,4238.4615
4209.7436,4137.4359,4073.8462,4217.4359,4201.0256,4181.5385,4156.4103,4171.2821,4026.6667,4167.6923,4460.5128,4222.0513
4205.1282,4131.7949,4076.4103,4205.641,4196.4103,4182.0513,4151.2821,4170.2564,4032.8205,4172.3077,4426.6667,4207.1795
4192.3077,4134.359,4073.8462,4198.9744,4202.0513,4176.4103,4150.2564,4169.2308,4024.1026,4168.7179,4422.0513,4193.8462
4186.6667,4140.5128,4071.2821,4196.4103,4202.0513,4174.359,4153.3333,4168.2051,4023.5897,4167.6923,4415.8974,4177.9487
4202.0513,4133.3333,4076.9231,4198.9744,4201.5385,4183.5897,4155.8974,4170.7692,4032.8205,4152.3077,4402.5641,4184.6154
4205.1282,4133.8462,4075.8974,4202.0513,4200,4185.1282,4154.8718,4164.6154,4029.2308,4118.9744,4406.6667,4197.4359
4194.8718,4136.9231,4074.359,4200.5128,4197.9487,4177.9487,4151.2821,4158.9744,4036.9231,4116.4103,4395.8974,4189.7436
4202.0513,4137.9487,4085.1282,4204.6154,4200.5128,4178.9744,4152.8205,4165.641,4061.5385,4141.0256,4363.5897,4182.0513
4215.8974,4143.0769,4094.8718,4213.3333,4202.5641,4180,4154.359,4168.7179,4057.9487,4141.5385,4369.7436,4201.0256
4222.0513,4140,4097.9487,4218.4615,4201.5385,4180.5128,4155.3846,4168.2051,4045.641,4137.4359,4400,4225.641
4221.5385,4142.0513,4100.5128,4217.9487,4204.6154,4182.5641,4157.9487,4173.8462,4058.4615,4149.7436,4403.5897,4224.6154
4206.1538,4141.5385,4093.8462,4213.3333,4207.6923,4180.5128,4157.4359,4175.3846,4060.5128,4146.1538,4395.3846,4205.1282
4201.0256,4138.4615,4090.7692,4207.1795,4202.0513,4179.4872,4154.8718,4170.2564,4048.7179,4131.7949,4390.7692,4203.0769
4210.7692,4146.6667,4102.5641,4203.5897,4197.9487,4182.0513,4154.8718,4167.1795,4054.359,4135.3846,4384.1026,4210.2564
4210.7692,4143.5897,4106.1538,4203.0769,4201.0256,4172.8205,4148.2051,4161.5385,4056.9231,4143.5897,4382.0513,4195.8974
4204.6154,4137.9487,4097.4359,4201.5385,4198.4615,4161.5385,4137.9487,4148.2051,4042.0513,4133.3333,4374.8718,4190.2564
4205.1282,4141.0256,4100.5128,4196.9231,4191.7949,4164.6154,4138.4615,4143.0769,4037.4359,4126.1538,4362.5641,4214.359
4201.0256,4143.0769,4106.1538,4191.2821,4189.7436,4164.1026,4142.0513,4151.7949,4049.2308,4132.8205,4364.6154,4217.9487
4196.4103,4148.7179,4105.1282,4187.1795,4181.0256,4154.359,4140.5128,4153.3333,4061.0256,4140,4354.8718,4192.3077
4203.0769,4145.1282,4105.1282,4186.1538,4170.7692,4151.7949,4138.4615,4145.1282,4053.8462,4138.9744,4329.7436,4189.2308
4196.9231,4141.5385,4099.4872,4184.6154,4177.4359,4152.8205,4135.8974,4140,4046.6667,4130.2564,4316.9231,4187.6923
4181.5385,4140,4090.7692,4178.9744,4185.1282,4152.8205,4134.359,4139.4872,4057.9487,4132.3077,4311.7949,4168.2051
4180,4136.9231,4089.7436,4170.7692,4171.2821,4150.7692,4136.4103,4140.5128,4058.9744,4133.8462,4302.0513,4167.1795
4177.4359,4143.0769,4092.8205,4167.1795,4161.5385,4149.7436,4136.9231,4148.2051,4051.7949,4125.1282,4283.0769,4172.3077
4180,4144.1026,4098.9744,4171.7949,4172.8205,4152.8205,4137.4359,4155.3846,4061.5385,4129.2308,4274.8718,4170.2564
4191.2821,4142.5641,4108.2051,4171.2821,4172.8205,4152.8205,4138.9744,4152.8205,4065.641,4137.4359,4286.1538,4185.641
4193.3333,4145.641,4107.1795,4168.7179,4166.1538,4151.2821,4136.9231,4149.7436,4054.359,4123.5897,4295.8974,4204.1026
4191.2821,4145.1282,4104.1026,4173.8462,4177.4359,4152.3077,4135.3846,4151.7949,4064.1026,4124.6154,4282.0513,4192.8205
4197.4359,4149.2308,4112.8205,4175.3846,4183.5897,4152.3077,4138.4615,4156.9231,4084.1026,4152.8205,4263.5897,4176.4103
4196.9231,4145.1282,4114.359,4169.7436,4175.8974,4151.2821,4137.4359,4157.4359,4068.2051,4149.2308,4271.7949,4190.2564
4186.6667,4142.0513,4107.1795,4167.1795,4175.8974,4151.7949,4134.8718,4153.3333,4056.4103,4128.7179,4269.2308,4191.2821
4186.1538,4145.641,4108.7179,4170.7692,4180.5128,4153.3333,4137.9487,4155.8974,4076.4103,4141.5385,4240,4160.5128
4189.2308,4140.5128,4113.3333,4169.2308,4171.7949,4153.8462,4136.4103,4158.4615,4078.9744,4145.1282,4237.4359,4162.0513
4178.9744,4140.5128,4108.2051,4156.9231,4162.0513,4154.359,4130.7692,4150.2564,4054.359,4118.4615,4255.8974,4191.2821
4162.0513,4139.4872,4094.8718,4145.1282,4164.1026,4154.8718,4131.2821,4139.4872,4045.1282,4106.6667,4248.7179,4179.4872
4148.7179,4136.4103,4090.2564,4144.6154,4166.6667,4153.3333,4129.7436,4136.9231,4062.5641,4120,4221.5385,4148.2051
4150.2564,4142.5641,4102.0513,4149.2308,4164.1026,4155.3846,4129.2308,4148.2051,4077.4359,4127.1795,4221.5385,4158.9744
4160,4140,4111.7949,4151.2821,4166.6667,4158.9744,4136.9231,4157.4359,4069.2308,4124.1026,4245.1282,4180
4164.6154,4137.4359,4107.1795,4149.7436,4170.7692,4154.8718,4135.3846,4145.641,4060.5128,4123.0769,4247.6923,4164.6154
4165.641,4141.0256,4105.1282,4152.8205,4169.2308,4149.7436,4124.1026,4138.9744,4072.8205,4128.2051,4232.3077,4160
4173.8462,4146.6667,4116.9231,4163.0769,4171.7949,4152.8205,4123.0769,4149.2308,4077.9487,4135.8974,4232.8205,4187.6923
4182.0513,4150.2564,4123.0769,4170.2564,4173.3333,4154.8718,4134.8718,4148.2051,4074.8718,4141.0256,4230.2564,4195.3846
4178.9744,4142.5641,4118.9744,4168.2051,4162.5641,4152.3077,4134.359,4136.4103,4088.7179,4140,4201.5385,4172.8205
4178.9744,4145.1282,4119.4872,4165.1282,4158.9744,4150.7692,4129.2308,4143.0769,4090.7692,4136.9231,4198.9744,4170.7692
4188.2051,4148.2051,4124.1026,4168.2051,4167.1795,4152.8205,4133.3333,4155.8974,4075.8974,4140,4218.9744,4198.4615
4190.2564,4143.5897,4125.1282,4169.7436,4161.0256,4153.8462,4133.8462,4148.7179,4074.359,4141.0256,4211.7949,4211.7949
4178.9744,4146.1538,4122.0513,4164.6154,4150.2564,4151.2821,4131.7949,4140,4077.9487,4130.2564,4195.3846,4192.8205
4169.2308,4143.0769,4118.9744,4162.5641,4161.0256,4154.359,4132.8205,4144.1026,4076.4103,4126.1538,4191.2821,4173.3333
4176.9231,4146.1538,4127.6923,4167.1795,4175.8974,4161.0256,4138.4615,4151.2821,4086.6667,4144.1026,4203.5897,4186.6667
4190.7692,4149.7436,4138.9744,4171.2821,4173.8462,4160,4137.4359,4154.359,4099.4872,4158.9744,4220.5128,4203.5897
4186.6667,4142.0513,4133.3333,4170.7692,4168.7179,4154.359,4129.7436,4151.2821,4094.359,4156.4103,4213.3333,4191.2821
4180.5128,4143.0769,4129.2308,4170.2564,4169.2308,4153.3333,4131.2821,4151.2821,4088.7179,4156.9231,4189.7436,4188.2051
4184.1026,4142.0513,4135.3846,4170.7692,4171.2821,4155.8974,4138.4615,4154.359,4091.7949,4161.0256,4188.2051,4208.2051
4181.0256,4141.5385,4131.7949,4171.2821,4165.641,4153.3333,4135.8974,4154.359,4092.8205,4157.4359,4191.7949,4206.1538
4170.7692,4143.5897,4121.5385,4166.6667,4149.7436,4145.641,4127.1795,4150.2564,4089.2308,4154.359,4177.4359,4179.4872
4168.7179,4140,4123.0769,4155.8974,4138.9744,4145.641,4132.3077,4148.2051,4090.7692,4155.8974,4169.2308,4175.8974
4170.2564,4141.0256,4127.1795,4154.359,4140.5128,4150.7692,4141.5385,4151.7949,4098.9744,4154.8718,4168.7179,4192.8205
4165.1282,4138.4615,4124.6154,4158.9744,4148.7179,4155.3846,4138.9744,4153.8462,4100.5128,4152.3077,4161.5385,4193.8462
4161.0256,4136.4103,4122.5641,4156.4103,4153.3333,4162.0513,4142.0513,4153.8462,4096.4103,4151.2821,4147.6923,4179.4872
4162.0513,4138.4615,4122.0513,4156.9231,4156.9231,4170.2564,4151.2821,4163.0769,4098.9744,4150.2564,4149.7436,4179.4872
4166.6667,4137.4359,4123.5897,4168.7179,4156.4103,4173.3333,4150.7692,4175.8974,4109.2308,4151.7949,4161.0256,4190.7692
4167.1795,4142.5641,4124.1026,4171.2821,4152.3077,4166.6667,4147.6923,4174.8718,4117.4359,4154.8718,4147.1795,4178.9744
4170.2564,4137.4359,4125.641,4161.0256,4152.3077,4159.4872,4147.6923,4168.2051,4118.4615,4156.9231,4135.3846,4172.3077
4171.7949,4132.8205,4126.1538,4157.4359,4152.3077,4160,4144.6154,4165.641,4121.5385,4161.0256,4131.7949,4180.5128
4162.0513,4139.4872,4121.5385,4158.4615,4152.8205,4162.5641,4140.5128,4159.4872,4130.2564,4159.4872,4116.9231,4179.4872
4163.5897,4137.4359,4119.4872,4156.4103,4151.7949,4161.5385,4140,4152.8205,4127.6923,4147.1795,4125.1282,4198.4615
4166.6667,4137.4359,4124.6154,4160,4149.2308,4157.9487,4141.0256,4154.359,4125.1282,4148.7179,4141.5385,4206.1538
4158.9744,4137.9487,4131.7949,4171.2821,4151.2821,4161.5385,4146.1538,4161.5385,4146.1538,4172.8205,4103.5897,4167.1795
4160.5128,4139.4872,4132.8205,4171.2821,4150.7692,4166.6667,4150.2564,4163.5897,4152.3077,4174.359,4074.359,4165.641
4168.7179,4141.0256,4126.1538,4159.4872,4148.7179,4167.1795,4149.7436,4159.4872,4124.6154,4146.6667,4115.8974,4209.2308
4161.5385,4129.7436,4119.4872,4151.7949,4152.3077,4167.6923,4148.2051,4158.4615,4110.2564,4132.8205,4145.1282,4205.641
4146.6667,4132.8205,4118.4615,4151.2821,4155.8974,4167.1795,4147.1795,4160,4121.0256,4140,4122.0513,4172.3077
4145.641,4137.4359,4121.5385,4155.3846,4152.8205,4164.6154,4147.6923,4157.9487,4137.4359,4148.7179,4102.5641,4159.4872
4148.7179,4132.3077,4123.0769,4150.7692,4143.0769,4157.9487,4149.2308,4156.4103,4138.9744,4154.8718,4113.3333,4163.5897
4144.6154,4134.8718,4119.4872,4144.1026,4137.4359,4154.359,4148.2051,4156.9231,4120.5128,4151.7949,4137.4359,4182.5641
4146.6667,4136.9231,4119.4872,4152.8205,4147.1795,4162.0513,4149.2308,4158.4615,4120.5128,4152.8205,4140,4184.6154
4154.8718,4139.4872,4125.641,4161.0256,4153.8462,4171.2821,4153.3333,4160.5128,4137.9487,4163.5897,4118.4615,4167.6923
4151.7949,4136.4103,4126.1538,4149.7436,4140,4166.1538,4145.641,4157.4359,4123.0769,4155.8974,4117.9487,4176.9231
4146.1538,4131.7949,4121.5385,4137.4359,4137.4359,4155.3846,4138.9744,4151.2821,4103.0769,4141.0256,4137.4359,4194.359
4149.7436,4136.9231,4123.5897,4138.9744,4152.8205,4161.0256,4146.6667,4154.359,4124.1026,4148.7179,4121.0256,4183.0769
4146.6667,4132.3077,4125.641,4135.3846,4156.4103,4170.2564,4152.3077,4160,4135.8974,4161.5385,4087.1795,4161.0256
4136.9231,4131.2821,4122.0513,4123.5897,4150.2564,4168.2051,4152.8205,4157.4359,4115.3846,4152.8205,4090.2564,4155.8974
4140,4133.8462,4118.9744,4118.9744,4150.2564,4166.1538,4153.8462,4154.359,4106.1538,4136.9231,4111.2821,4170.7692
4149.7436,4129.2308,4122.5641,4123.0769,4147.6923,4171.2821,4154.8718,4154.359,4119.4872,4141.5385,4108.7179,4178.9744
4146.6667,4131.2821,4125.1282,4123.5897,4140,4167.6923,4153.8462,4154.359,4134.359,4153.3333,4087.6923,4167.1795
4139.4872,4127.6923,4126.1538,4117.4359,4135.8974,4161.5385,4151.2821,4154.8718,4133.8462,4148.2051,4084.1026,4164.6154
4145.1282,4126.6667,4128.2051,4114.8718,4136.4103,4166.1538,4145.1282,4156.4103,4127.1795,4141.0256,4093.3333,4171.7949
4139.4872,4131.7949,4126.1538,4115.3846,4137.4359,4166.1538,4140.5128,4148.7179,4123.5897,4142.0513,4080.5128,4164.6154
4123.5897,4129.2308,4121.0256,4113.3333,4135.8974,4155.3846,4137.9487,4138.4615,4121.5385,4142.0513,4064.1026,4154.8718
4129.2308,4131.2821,4122.5641,4114.8718,4131.7949,4147.6923,4134.359,4137.4359,4125.1282,4144.1026,4067.6923,4155.3846
4135.3846,4131.2821,4122.0513,4120.5128,4136.9231,4147.1795,4130.2564,4137.9487,4120,4141.5385,4076.9231,4157.4359
4121.5385,4132.3077,4115.3846,4125.641,4146.1538,4142.5641,4128.7179,4135.3846,4115.3846,4132.3077,4060.5128,4143.0769
4132.8205,4137.4359,4118.9744,4134.8718,4144.6154,4137.9487,4132.3077,4138.9744,4125.641,4138.4615,4034.359,4131.2821
4148.2051,4136.4103,4123.5897,4145.1282,4147.1795,4137.4359,4135.8974,4142.5641,4126.6667,4138.4615,4045.641,4142.5641
4121.5385,4135.3846,4111.2821,4136.4103,4155.3846,4137.4359,4137.4359,4138.9744,4106.1538,4117.4359,4070.2564,4150.2564
4118.9744,4127.6923,4106.6667,4122.5641,4149.2308,4141.5385,4138.4615,4138.9744,4102.0513,4116.4103,4067.6923,4151.2821
4131.7949,4127.6923,4113.3333,4118.9744,4134.359,4137.4359,4133.8462,4141.5385,4109.7436,4123.0769,4046.1538,4144.1026
4104.6154,4132.8205,4108.2051,4107.1795,4123.0769,4123.5897,4126.6667,4137.4359,4106.6667,4110.2564,4032.8205,4124.1026
4092.8205,4126.1538,4102.5641,4102.0513,4123.5897,4117.4359,4124.1026,4136.4103,4113.8462,4112.8205,4024.1026,4111.2821
4115.3846,4132.3077,4112.3077,4116.9231,4134.359,4123.0769,4128.2051,4142.5641,4121.5385,4128.2051,4026.6667,4112.8205
4128.7179,4135.3846,4122.0513,4127.6923,4140,4128.7179,4133.3333,4146.1538,4113.8462,4128.2051,4055.3846,4130.7692
4126.1538,4130.2564,4121.5385,4128.2051,4136.4103,4126.1538,4134.8718,4146.1538,4118.4615,4132.8205,4068.2051,4145.1282
4115.8974,4133.3333,4119.4872,4131.2821,4137.9487,4122.0513,4129.7436,4144.6154,4135.8974,4141.0256,4040,4136.9231
4113.8462,4131.7949,4120,4135.3846,4136.4103,4122.5641,4127.6923,4138.4615,4136.9231,4130.7692,4026.1538,4134.359
4128.2051,4132.3077,4121.0256,4132.3077,4131.2821,4121.5385,4127.6923,4134.8718,4121.5385,4121.5385,4050.7692,4153.8462
4125.641,4133.3333,4120.5128,4125.641,4136.4103,4120,4123.0769,4136.4103,4114.8718,4125.641,4054.8718,4147.1795
4111.2821,4130.2564,4121.0256,4122.5641,4142.0513,4122.5641,4122.0513,4136.4103,4118.9744,4126.6667,4035.8974,4123.5897
4119.4872,4132.3077,4121.5385,4121.5385,4135.8974,4118.4615,4125.1282,4135.3846,4124.6154,4122.5641,4031.2821,4129.2308
4120.5128,4129.7436,4121.5385,4122.0513,4130.7692,4113.3333,4123.0769,4135.8974,4121.5385,4124.1026,4029.2308,4132.3077
4105.641,4132.8205,4126.1538,4129.7436,4134.359,4117.9487,4123.0769,4137.4359,4112.3077,4124.6154,4037.4359,4123.5897
4107.6923,4133.3333,4127.1795,4139.4872,4140,4120.5128,4126.1538,4137.4359,4109.7436,4124.6154,4056.9231,4133.8462
4118.4615,4126.1538,4124.6154,4141.5385,4145.1282,4118.9744,4125.1282,4136.4103,4124.1026,4133.8462,4050.2564,4144.1026
4122.5641,4128.7179,4126.1538,4135.3846,4145.641,4118.9744,4126.6667,4137.4359,4129.7436,4136.9231,4040,4134.8718
4107.1795,4126.6667,4119.4872,4128.2051,4141.5385,4118.9744,4129.2308,4132.8205,4108.7179,4118.4615,4044.1026,4120.5128
4084.6154,4126.6667,4109.2308,4129.7436,4137.4359,4119.4872,4126.6667,4122.0513,4105.641,4109.7436,4018.9744,4103.5897
4094.359,4130.2564,4116.9231,4138.4615,4140,4118.9744,4122.5641,4123.0769,4129.7436,4126.1538,4003.0769,4105.1282
4111.7949,4127.1795,4126.6667,4134.8718,4144.6154,4115.3846,4124.1026,4133.3333,4129.2308,4131.2821,4034.359,4130.7692
4107.6923,4129.2308,4122.5641,4126.6667,4144.6154,4117.9487,4132.3077,4136.4103,4115.3846,4122.5641,4051.2821,4145.1282
4108.2051,4126.6667,4122.5641,4128.7179,4142.0513,4126.6667,4133.8462,4134.8718,4125.1282,4125.1282,4034.359,4140
4111.7949,4126.1538,4126.1538,4125.641,4139.4872,4126.1538,4126.1538,4129.7436,4131.2821,4125.641,4022.5641,4125.1282
4102.0513,4129.2308,4122.5641,4121.5385,4140,4122.5641,4121.5385,4122.5641,4131.2821,4123.0769,4012.8205,4112.8205
4102.5641,4127.1795,4121.5385,4130.7692,4138.9744,4127.6923,4123.5897,4129.7436,4148.2051,4132.8205,4008.2051,4126.1538
4111.2821,4130.2564,4128.2051,4137.9487,4137.4359,4134.8718,4131.7949,4142.0513,4148.7179,4135.3846,4026.6667,4149.2308
4108.2051,4128.7179,4126.6667,4136.4103,4138.9744,4137.9487,4138.9744,4140.5128,4128.7179,4121.0256,4037.4359,4144.1026
4106.6667,4132.3077,4121.5385,4135.3846,4142.0513,4135.8974,4133.8462,4133.8462,4129.7436,4123.5897,4022.5641,4128.2051
4116.9231,4134.8718,4127.6923,4132.8205,4138.4615,4129.7436,4127.6923,4136.9231,4144.1026,4139.4872,4027.1795,4137.4359
4127.6923,4124.6154,4134.359,4124.1026,4125.641,4126.6667,4132.3077,4140,4141.0256,4138.9744,4047.6923,4152.3077
4118.9744,4127.6923,4125.1282,4113.8462,4121.0256,4133.3333,4138.4615,4136.4103,4135.8974,4131.7949,4032.3077,4135.8974
4104.1026,4133.8462,4117.9487,4112.8205,4135.8974,4148.7179,4146.1538,4141.5385,4141.5385,4133.8462,4022.5641,4122.5641
4115.8974,4130.2564,4131.2821,4118.4615,4145.1282,4155.8974,4152.8205,4153.8462,4150.7692,4137.4359,4042.5641,4142.0513
4129.2308,4129.2308,4140.5128,4121.5385,4135.3846,4148.2051,4148.2051,4151.7949,4155.8974,4138.9744,4039.4872,4145.1282
4118.4615,4130.2564,4134.8718,4120.5128,4129.7436,4141.5385,4141.0256,4140.5128,4148.7179,4136.9231,4028.7179,4130.7692
4109.2308,4136.4103,4132.3077,4120.5128,4134.8718,4139.4872,4140,4137.9487,4151.7949,4135.3846,4020,4123.0769
4121.5385,4133.3333,4136.4103,4126.1538,4136.4103,4142.5641,4138.9744,4144.1026,4166.1538,4141.5385,4007.1795,4128.2051
4134.8718,4131.7949,4138.4615,4137.4359,4139.4872,4145.641,4139.4872,4150.7692,4162.5641,4145.1282,4027.1795,4149.7436
4139.4872,4139.4872,4140,4144.6154,4141.5385,4142.5641,4140,4152.8205,4154.359,4140.5128,4060,4167.6923
4145.1282,4132.8205,4143.0769,4136.9231,4132.3077,4138.9744,4136.9231,4151.7949,4163.5897,4138.9744,4054.359,4168.7179
4138.9744,4129.7436,4140.5128,4122.5641,4117.9487,4138.4615,4137.9487,4152.8205,4171.7949,4141.0256,4034.359,4164.6154
4124.6154,4131.7949,4136.4103,4112.8205,4118.4615,4135.3846,4139.4872,4149.2308,4162.5641,4140.5128,4028.7179,4151.2821
4122.5641,4127.1795,4136.9231,4107.6923,4126.1538,4135.3846,4136.9231,4141.5385,4157.4359,4139.4872,4021.0256,4129.2308
4122.0513,4130.7692,4131.7949,4103.0769,4112.8205,4137.4359,4136.4103,4140,4159.4872,4134.359,4024.6154,4134.359
4116.4103,4128.7179,4124.1026,4094.359,4097.9487,4133.3333,4136.4103,4138.4615,4155.3846,4127.6923,4030.7692,4141.0256
4116.9231,4126.1538,4127.6923,4092.3077,4106.6667,4131.7949,4135.3846,4133.3333,4155.3846,4132.8205,4015.8974,4119.4872
4120,4125.1282,4134.359,4098.9744,4117.9487,4138.4615,4136.9231,4134.359,4157.4359,4139.4872,4010.7692,4117.4359
4118.4615,4126.6667,4129.7436,4104.6154,4120.5128,4140.5128,4137.4359,4137.4359,4154.359,4133.8462,4020.5128,4134.8718
4116.4103,4134.359,4124.6154,4107.6923,4121.5385,4138.9744,4138.4615,4137.9487,4152.8205,4128.2051,4023.5897,4141.0256
4117.9487,4125.641,4126.6667,4106.1538,4117.9487,4138.9744,4139.4872,4139.4872,4155.8974,4128.7179,4026.1538,4142.5641
4116.4103,4121.5385,4124.1026,4099.4872,4110.7692,4135.8974,4135.8974,4138.4615,4154.8718,4122.0513,4024.1026,4141.0256
4112.8205,4127.6923,4120.5128,4096.4103,4112.3077,4134.359,4133.3333,4137.4359,4156.9231,4120,4019.4872,4132.3077
4117.4359,4122.0513,4125.641,4098.4615,4117.4359,4140.5128,4136.4103,4136.9231,4166.1538,4130.2564,4028.7179,4133.3333
4118.9744,4122.0513,4125.641,4094.359,4120,4150.2564,4137.9487,4134.8718,4167.1795,4129.7436,4034.8718,4138.9744
4117.9487,4125.1282,4122.5641,4087.6923,4124.6154,4153.3333,4137.4359,4136.4103,4165.641,4128.7179,4027.1795,4136.4103
4121.0256,4130.7692,4128.7179,4092.8205,4124.6154,4144.1026,4138.4615,4139.4872,4169.7436,4139.4872,4023.0769,4134.8718
4124.1026,4133.3333,4137.4359,4103.0769,4121.0256,4137.9487,4137.4359,4137.9487,4173.3333,4144.1026,4024.6154,4138.4615
4121.5385,4126.1538,4134.8718,4102.5641,4122.0513,4139.4872,4135.3846,4137.4359,4171.7949,4138.4615,4020.5128,4136.9231
4115.8974,4132.8205,4131.2821,4098.9744,4116.4103,4138.4615,4137.4359,4137.9487,4163.5897,4132.8205,4012.8205,4131.7949
4121.0256,4136.9231,4142.0513,4108.2051,4109.7436,4138.4615,4138.9744,4138.9744,4168.7179,4142.0513,4014.359,4131.7949
4132.8205,4131.7949,4159.4872,4113.8462,4112.8205,4141.0256,4140.5128,4145.1282,4183.0769,4154.8718,4024.6154,4144.1026
4131.7949,4128.2051,4164.6154,4103.0769,4113.8462,4137.4359,4141.5385,4147.1795,4182.5641,4148.7179,4030.2564,4159.4872
4121.5385,4127.1795,4157.9487,4097.4359,4108.7179,4134.359,4138.9744,4140.5128,4186.1538,4145.1282,4005.1282,4150.2564
4118.9744,4133.3333,4156.4103,4101.0256,4106.6667,4130.7692,4138.4615,4138.4615,4195.3846,4156.9231,3992.8205,4131.2821
4128.7179,4129.2308,4163.0769,4104.6154,4108.7179,4126.6667,4139.4872,4141.5385,4180.5128,4152.8205,4032.3077,4145.1282
4133.8462,4128.7179,4158.4615,4104.1026,4110.7692,4128.7179,4131.7949,4138.9744,4164.1026,4135.8974,4055.8974,4161.0256
4122.5641,4134.8718,4141.5385,4096.4103,4110.2564,4134.359,4128.2051,4138.4615,4175.3846,4135.8974,4032.8205,4144.6154
4114.359,4130.2564,4134.8718,4097.4359,4110.7692,4138.4615,4136.4103,4146.6667,4185.641,4138.9744,4022.0513,4130.7692
4117.4359,4135.8974,4141.0256,4106.1538,4113.8462,4140.5128,4144.6154,4151.7949,4186.6667,4137.4359,4024.6154,4130.7692
4119.4872,4134.359,4138.4615,4100,4114.8718,4135.8974,4140.5128,4146.6667,4183.5897,4136.4103,4023.5897,4126.1538
4110.2564,4122.0513,4124.6154,4087.1795,4106.6667,4125.641,4128.2051,4133.8462,4166.6667,4122.0513,4031.7949,4120.5128
4096.9231,4124.6154,4117.4359,4087.6923,4104.1026,4115.8974,4119.4872,4123.5897,4155.8974,4105.1282,4026.1538,4118.4615
4093.3333,4126.6667,4119.4872,4091.2821,4108.2051,4115.3846,4118.4615,4120,4159.4872,4108.7179,4009.2308,4113.3333
4102.0513,4127.6923,4121.0256,4087.6923,4105.1282,4118.4615,4121.0256,4123.5897,4167.6923,4120,4014.359,4107.6923
4106.6667,4124.1026,4121.0256,4089.2308,4105.641,4115.8974,4122.0513,4127.1795,4169.2308,4116.9231,4021.0256,4111.7949
4091.2821,4119.4872,4120,4090.7692,4110.2564,4113.3333,4124.6154,4124.1026,4153.3333,4104.6154,4004.6154,4111.7949
4083.5897,4127.1795,4119.4872,4087.6923,4103.0769,4114.8718,4125.1282,4122.0513,4142.5641,4104.6154,3992.3077,4098.4615
4096.9231,4125.1282,4122.0513,4084.6154,4093.3333,4114.359,4121.5385,4124.6154,4152.3077,4110.7692,4000.5128,4100
4092.8205,4122.5641,4122.5641,4078.9744,4093.3333,4107.6923,4121.5385,4123.0769,4152.8205,4106.1538,3997.4359,4106.1538
4078.4615,4122.5641,4119.4872,4073.8462,4095.3846,4108.2051,4125.1282,4120.5128,4137.9487,4102.5641,3980.5128,4095.3846
4085.641,4118.9744,4130.2564,4073.3333,4090.7692,4111.2821,4123.5897,4122.0513,4136.4103,4107.6923,3975.3846,4090.7692
4090.7692,4124.6154,4138.4615,4073.8462,4085.1282,4101.5385,4116.4103,4118.9744,4131.7949,4099.4872,3982.0513,4102.0513
4077.9487,4128.7179,4128.7179,4074.359,4085.641,4095.3846,4111.2821,4113.8462,4123.0769,4086.6667,3974.359,4095.8974
4080.5128,4132.3077,4125.1282,4081.0256,4087.6923,4099.4872,4111.7949,4118.4615,4131.2821,4100,3963.5897,4083.0769
4106.1538,4132.3077,4136.9231,4094.359,4089.7436,4106.1538,4116.4103,4128.2051,4144.6154,4122.0513,3980.5128,4104.6154
4123.0769,4130.2564,4141.5385,4104.1026,4099.4872,4106.6667,4120.5128,4129.2308,4152.3077,4126.1538,4001.5385,4130.7692
4113.3333,4135.8974,4134.359,4100,4104.1026,4105.1282,4122.0513,4122.0513,4155.8974,4122.5641,3992.3077,4118.9744
4114.8718,4127.6923,4135.3846,4091.2821,4097.4359,4108.7179,4120.5128,4120.5128,4148.7179,4127.1795,3993.3333,4120
4131.2821,4123.5897,4142.5641,4088.2051,4097.9487,4113.3333,4115.8974,4122.5641,4138.4615,4129.2308,4017.4359,4145.641
4111.7949,4133.3333,4133.3333,4087.6923,4101.5385,4110.7692,4109.2308,4119.4872,4140.5128,4123.0769,4005.641,4122.5641
4086.1538,4134.359,4122.5641,4092.8205,4097.9487,4104.6154,4107.1795,4113.3333,4144.6154,4119.4872,3980,4090.7692
4107.1795,4136.9231,4133.3333,4104.1026,4100,4108.2051,4114.8718,4124.6154,4145.641,4123.5897,3998.9744,4116.9231
4124.1026,4134.8718,4139.4872,4110.7692,4109.7436,4113.3333,4121.0256,4140.5128,4145.641,4126.6667,4016.9231,4135.3846
4103.0769,4134.8718,4124.1026,4107.1795,4109.7436,4106.6667,4116.4103,4137.4359,4140.5128,4126.1538,4003.0769,4122.5641
4099.4872,4135.3846,4121.0256,4098.9744,4103.0769,4102.5641,4114.359,4133.8462,4144.6154,4127.6923,3992.8205,4122.5641
4107.1795,4126.6667,4130.2564,4093.3333,4102.0513,4109.2308,4121.0256,4138.9744,4154.359,4127.6923,3990.2564,4122.5641
4090.7692,4128.7179,4127.6923,4088.7179,4103.5897,4110.7692,4126.6667,4138.4615,4146.6667,4122.5641,3997.9487,4113.3333
4081.0256,4130.7692,4122.5641,4082.0513,4098.4615,4109.2308,4126.1538,4136.9231,4143.0769,4121.0256,4004.1026,4109.7436
4087.1795,4127.6923,4124.1026,4078.4615,4093.3333,4116.9231,4126.1538,4139.4872,4158.4615,4123.0769,3977.4359,4092.8205
4091.2821,4128.7179,4124.1026,4076.4103,4100,4121.0256,4127.1795,4130.7692,4151.2821,4114.359,3970.7692,4091.7949
4085.641,4127.6923,4121.5385,4072.8205,4106.1538,4115.8974,4122.5641,4123.0769,4132.3077,4103.5897,4004.6154,4117.9487
4084.6154,4133.3333,4127.6923,4080,4103.0769,4116.4103,4122.5641,4134.359,4157.4359,4119.4872,4001.5385,4120
4095.3846,4134.359,4136.9231,4093.3333,4105.1282,4122.5641,4129.7436,4142.5641,4192.3077,4138.9744,3969.7436,4108.7179
4107.1795,4126.6667,4137.9487,4092.3077,4109.2308,4123.0769,4131.2821,4137.4359,4197.9487,4144.1026,3957.4359,4101.5385
4118.9744,4127.6923,4142.5641,4090.7692,4106.6667,4119.4872,4131.2821,4136.9231,4182.5641,4148.7179,3989.2308,4107.1795
4124.6154,4128.7179,4152.8205,4102.0513,4106.1538,4120,4131.2821,4141.0256,4163.0769,4147.6923,4040.5128,4123.5897
4123.5897,4133.3333,4160,4110.7692,4109.2308,4118.4615,4127.1795,4139.4872,4161.5385,4141.0256,4066.1538,4123.0769
4133.3333,4132.8205,4167.6923,4111.2821,4110.2564,4113.8462,4123.5897,4136.4103,4168.2051,4143.5897,4090.7692,4127.1795
4142.5641,4125.641,4174.359,4111.2821,4109.2308,4111.7949,4128.2051,4139.4872,4157.4359,4143.0769,4138.9744,4156.4103
4131.7949,4126.6667,4170.7692,4108.7179,4106.6667,4109.2308,4127.6923,4142.0513,4143.5897,4135.8974,4155.3846,4153.3333
4117.9487,4122.5641,4163.0769,4099.4872,4102.5641,4108.2051,4120,4135.8974,4141.0256,4138.4615,4134.359,4111.7949
4109.2308,4122.0513,4155.8974,4093.8462,4100,4107.6923,4122.5641,4129.7436,4130.2564,4135.3846,4138.9744,4101.5385
4097.4359,4123.5897,4149.7436,4094.359,4103.5897,4109.2308,4132.8205,4135.8974,4118.4615,4123.5897,4145.1282,4110.7692
4100.5128,4121.0256,4149.7436,4094.8718,4109.2308,4115.3846,4134.8718,4145.1282,4112.8205,4120.5128,4136.4103,4107.6923
4104.6154,4124.6154,4146.6667,4088.7179,4110.7692,4122.0513,4130.2564,4140.5128,4114.359,4123.5897,4114.359,4108.2051
4092.3077,4121.5385,4138.9744,4083.5897,4114.8718,4124.6154,4126.1538,4132.3077,4117.9487,4125.641,4073.3333,4100
4094.8718,4125.641,4141.0256,4089.2308,4116.9231,4121.5385,4126.1538,4134.8718,4108.7179,4121.5385,4068.7179,4101.5385
4104.1026,4131.2821,4144.1026,4094.8718,4111.7949,4121.0256,4128.7179,4137.9487,4124.1026,4122.5641,4062.0513,4100
4101.5385,4124.6154,4145.1282,4092.3077,4114.359,4122.5641,4133.8462,4136.9231,4149.7436,4138.4615,4025.1282,4085.641
4111.2821,4124.6154,4152.8205,4090.7692,4118.9744,4123.0769,4140.5128,4147.6923,4133.8462,4143.0769,4049.2308,4112.8205
4122.0513,4121.5385,4154.8718,4093.8462,4113.3333,4124.6154,4141.0256,4155.3846,4115.3846,4126.6667,4105.641,4150.2564
4106.6667,4123.0769,4146.6667,4089.7436,4105.641,4124.1026,4135.3846,4143.5897,4135.3846,4126.1538,4089.7436,4128.2051
4098.9744,4128.2051,4148.7179,4085.641,4106.6667,4120.5128,4131.7949,4136.4103,4144.6154,4138.4615,4060,4105.641
4110.7692,4123.5897,4153.3333,4090.7692,4109.2308,4119.4872,4129.7436,4141.5385,4128.7179,4132.8205,4071.2821,4114.359
4105.1282,4124.6154,4143.0769,4089.7436,4103.0769,4117.9487,4127.1795,4138.9744,4122.5641,4123.0769,4061.5385,4095.8974
4096.4103,4123.0769,4134.8718,4081.5385,4100,4113.3333,4122.0513,4135.3846,4121.5385,4121.5385,4057.4359,4092.3077
4107.1795,4124.6154,4142.5641,4085.641,4109.7436,4114.8718,4121.5385,4138.4615,4127.6923,4126.6667,4073.3333,4111.2821
4120.5128,4131.2821,4154.359,4100,4120.5128,4121.5385,4128.7179,4138.4615,4139.4872,4138.9744,4069.7436,4108.7179
4121.5385,4126.6667,4153.8462,4101.5385,4120,4123.0769,4132.8205,4138.9744,4137.9487,4142.5641,4075.3846,4125.641
4110.7692,4125.641,4140.5128,4089.7436,4112.3077,4123.5897,4125.1282,4137.4359,4135.3846,4130.2564,4078.9744,4141.0256
4106.1538,4125.641,4134.8718,4087.1795,4107.1795,4125.1282,4120,4135.3846,4137.9487,4124.1026,4053.8462,4113.3333
4110.7692,4124.6154,4140.5128,4089.7436,4107.6923,4125.1282,4130.2564,4144.6154,4132.3077,4125.641,4046.1538,4100
4100.5128,4125.1282,4133.8462,4082.0513,4110.7692,4125.1282,4137.9487,4154.359,4124.6154,4116.9231,4062.0513,4113.8462
4080,4118.9744,4120,4069.7436,4110.2564,4126.6667,4133.3333,4153.3333,4127.6923,4113.8462,4046.6667,4101.0256
4086.6667,4120,4125.641,4070.2564,4104.1026,4125.641,4133.8462,4151.2821,4125.1282,4122.0513,4026.6667,4094.359
4107.6923,4121.0256,4139.4872,4081.0256,4104.6154,4128.2051,4141.0256,4153.8462,4128.7179,4125.641,4035.3846,4106.1538
4104.6154,4122.5641,4138.4615,4089.2308,4115.3846,4135.8974,4142.0513,4153.8462,4149.2308,4128.2051,4033.8462,4097.4359
4097.9487,4131.2821,4134.8718,4096.4103,4123.5897,4138.9744,4138.9744,4152.8205,4153.3333,4135.8974,4029.7436,4102.0513
4114.8718,4128.2051,4141.0256,4105.641,4125.641,4138.4615,4138.4615,4155.8974,4139.4872,4138.4615,4049.7436,4131.2821
4126.6667,4128.2051,4142.5641,4112.8205,4127.6923,4136.4103,4134.8718,4153.3333,4133.8462,4134.359,4064.6154,4133.3333
4121.0256,4128.2051,4135.3846,4110.7692,4128.2051,4133.8462,4130.2564,4146.1538,4141.0256,4133.8462,4054.359,4120.5128
4121.5385,4124.6154,4142.5641,4106.6667,4124.6154,4137.4359,4130.7692,4147.6923,4153.3333,4138.4615,4050.2564,4127.6923
4125.1282,4128.7179,4155.8974,4110.7692,4123.5897,4138.9744,4134.8718,4154.8718,4154.359,4142.0513,4065.1282,4128.7179
4119.4872,4122.0513,4152.8205,4107.6923,4127.1795,4130.7692,4134.8718,4149.7436,4141.5385,4139.4872,4072.8205,4124.6154
4111.7949,4119.4872,4146.1538,4093.3333,4120.5128,4124.6154,4129.2308,4137.4359,4136.9231,4135.3846,4057.9487,4130.2564
4107.6923,4119.4872,4147.6923,4082.5641,4102.5641,4120,4123.5897,4135.8974,4139.4872,4137.9487,4040.5128,4119.4872
4107.6923,4114.8718,4145.641,4078.4615,4093.8462,4112.3077,4124.1026,4147.1795,4129.2308,4142.0513,4046.1538,4102.0513
4105.1282,4123.0769,4131.7949,4076.4103,4096.9231,4105.641,4125.641,4151.7949,4122.0513,4132.8205,4047.6923,4101.5385
4095.8974,4123.5897,4122.0513,4075.3846,4095.3846,4097.9487,4114.8718,4140,4122.5641,4121.5385,4029.7436,4100
4087.1795,4121.5385,4121.0256,4073.3333,4087.6923,4087.6923,4106.1538,4131.7949,4118.9744,4121.0256,4012.3077,4084.6154
4091.7949,4121.5385,4124.1026,4071.7949,4086.1538,4088.2051,4107.1795,4135.8974,4120.5128,4121.0256,4008.7179,4085.1282
4097.9487,4116.4103,4124.6154,4074.359,4089.7436,4092.3077,4108.2051,4131.7949,4121.0256,4111.7949,4009.7436,4095.3846
4084.1026,4123.0769,4120,4073.8462,4091.7949,4090.2564,4105.641,4120,4114.359,4106.1538,3991.2821,4085.641
4078.9744,4124.1026,4123.0769,4073.8462,4094.359,4090.7692,4103.0769,4119.4872,4114.359,4117.9487,3977.9487,4081.0256
4092.3077,4119.4872,4128.2051,4078.4615,4093.3333,4090.2564,4104.6154,4123.0769,4120,4122.5641,3996.4103,4096.4103
4094.8718,4116.9231,4124.6154,4076.9231,4088.7179,4089.2308,4106.1538,4122.0513,4117.9487,4110.2564,4015.3846,4103.0769
4088.2051,4111.2821,4122.0513,4070.2564,4089.7436,4098.9744,4105.641,4124.1026,4113.8462,4104.1026,4004.6154,4096.4103
4087.1795,4115.8974,4123.0769,4072.8205,4096.4103,4101.5385,4106.1538,4131.7949,4120.5128,4108.7179,3981.5385,4084.6154
4088.7179,4115.8974,4123.0769,4078.9744,4097.9487,4094.8718,4109.2308,4137.4359,4125.641,4114.359,3977.4359,4076.4103
4087.1795,4114.359,4121.0256,4072.8205,4091.7949,4094.359,4110.2564,4137.4359,4120.5128,4116.4103,3984.6154,4083.5897
4090.7692,4116.4103,4120.5128,4065.1282,4086.1538,4093.3333,4108.2051,4138.4615,4130.2564,4123.0769,3974.8718,4082.5641
4093.8462,4111.7949,4120.5128,4069.7436,4086.1538,4090.2564,4106.1538,4140.5128,4138.4615,4130.2564,3960,4070.7692
4092.8205,4114.8718,4121.5385,4077.4359,4087.6923,4089.2308,4105.641,4136.4103,4116.9231,4129.2308,3980.5128,4087.6923
4100,4115.8974,4123.5897,4076.9231,4089.7436,4092.3077,4105.641,4134.8718,4106.6667,4127.1795,4018.9744,4111.2821
4013.8462,4106.1538,4120.5128,4025.1282,4080,4108.7179,4140.5128,4152.3077,4167.1795,4116.4103,3997.4359,4077.9487
3997.9487,4102.0513,4105.641,4010.7692,4092.3077,4111.7949,4136.9231,4146.1538,4159.4872,4099.4872,3982.0513,4058.4615
3987.1795,4101.5385,4091.7949,4001.5385,4085.641,4107.1795,4126.1538,4135.8974,4146.1538,4083.0769,3959.4872,4033.8462
3981.5385,4105.641,4087.6923,3999.4872,4071.2821,4101.5385,4121.0256,4137.9487,4142.5641,4077.4359,3952.3077,4024.1026
3981.0256,4098.9744,4088.7179,3998.9744,4082.0513,4107.1795,4121.5385,4139.4872,4153.8462,4081.5385,3948.7179,4031.2821
3984.1026,4104.1026,4097.4359,4006.6667,4097.9487,4110.7692,4123.5897,4135.8974,4165.641,4087.1795,3946.1538,4040
3990.2564,4108.7179,4106.1538,4011.7949,4098.4615,4109.7436,4123.5897,4134.8718,4168.7179,4090.2564,3937.9487,4032.8205
3987.6923,4104.6154,4099.4872,4005.1282,4092.8205,4110.7692,4122.0513,4132.3077,4171.2821,4087.6923,3915.8974,4026.6667
3976.4103,4105.1282,4093.3333,3995.8974,4086.6667,4106.1538,4118.4615,4129.7436,4183.0769,4089.2308,3898.4615,4035.8974
3977.9487,4104.6154,4103.0769,3998.9744,4086.1538,4103.0769,4118.9744,4134.8718,4199.4872,4096.9231,3903.5897,4043.0769
3989.7436,4109.2308,4110.2564,4007.6923,4095.3846,4112.8205,4124.1026,4140,4205.641,4095.3846,3930.2564,4055.3846
3995.3846,4107.1795,4108.2051,4007.1795,4086.1538,4119.4872,4124.6154,4138.9744,4208.2051,4089.2308,3954.359,4078.9744
3989.2308,4101.0256,4106.6667,4005.1282,4060.5128,4109.2308,4120,4136.9231,4218.4615,4090.7692,3950.2564,4077.4359
3980,4103.0769,4098.4615,4004.1026,4068.2051,4102.0513,4120,4136.4103,4220.5128,4085.1282,3934.8718,4054.8718
3972.8205,4099.4872,4087.1795,3995.8974,4094.359,4109.2308,4117.4359,4130.7692,4215.8974,4076.4103,3939.4872,4048.2051
3971.2821,4102.0513,4087.6923,3986.6667,4098.4615,4111.7949,4111.7949,4126.6667,4222.0513,4077.9487,3945.1282,4047.6923
3974.359,4101.5385,4090.2564,3987.6923,4090.2564,4104.1026,4110.2564,4124.6154,4231.2821,4078.9744,3930.7692,4040.5128
3971.7949,4097.4359,4090.7692,3992.8205,4084.1026,4101.0256,4108.7179,4123.5897,4232.3077,4081.0256,3921.5385,4040
3968.7179,4103.5897,4092.8205,3993.3333,4081.0256,4106.6667,4112.3077,4130.7692,4230.7692,4089.7436,3934.359,4042.0513
3972.3077,4101.0256,4094.359,3996.9231,4093.3333,4110.2564,4118.9744,4140,4229.7436,4094.359,3951.7949,4044.1026
3972.3077,4099.4872,4098.4615,4001.5385,4090.2564,4104.6154,4114.8718,4132.3077,4231.2821,4091.7949,3944.1026,4043.0769
3970.2564,4105.1282,4104.6154,4002.0513,4075.3846,4102.0513,4111.7949,4124.1026,4240,4092.8205,3926.1538,4044.1026
3977.9487,4102.5641,4106.6667,4003.5897,4092.3077,4109.7436,4121.0256,4131.2821,4248.7179,4100,3931.7949,4053.8462
3981.0256,4104.1026,4105.1282,4004.6154,4104.6154,4111.7949,4125.641,4129.2308,4247.6923,4102.0513,3938.9744,4057.4359
3978.4615,4105.1282,4107.1795,4003.0769,4096.9231,4109.2308,4119.4872,4120,4243.5897,4097.9487,3934.8718,4052.3077
3983.0769,4105.1282,4104.6154,4002.0513,4095.8974,4112.3077,4120.5128,4126.6667,4246.6667,4094.359,3924.1026,4047.1795
3984.1026,4102.0513,4095.3846,4002.5641,4092.8205,4115.8974,4123.5897,4132.8205,4252.3077,4093.8462,3907.6923,4047.1795
3981.0256,4097.4359,4091.7949,4000,4096.4103,4114.8718,4121.0256,4125.641,4248.2051,4091.7949,3901.5385,4049.7436
3980.5128,4102.5641,4093.3333,3996.9231,4103.0769,4108.2051,4121.0256,4123.5897,4244.1026,4088.7179,3887.6923,4042.5641
3982.5641,4099.4872,4092.8205,4000.5128,4089.2308,4108.2051,4125.641,4133.3333,4254.359,4086.6667,3845.1282,4037.9487
3982.0513,4100,4088.7179,4001.5385,4084.1026,4118.9744,4127.6923,4137.9487,4263.0769,4081.0256,3804.6154,4040.5128
3977.9487,4105.641,4087.1795,3998.4615,4101.0256,4121.5385,4124.1026,4136.4103,4252.8205,4074.8718,3797.9487,4037.9487
3975.8974,4098.9744,4088.7179,4000,4097.4359,4115.3846,4123.0769,4135.3846,4243.0769,4073.8462,3796.9231,4030.7692
3978.4615,4101.5385,4090.7692,4002.0513,4095.3846,4116.9231,4125.641,4139.4872,4254.8718,4082.5641,3785.1282,4025.1282
3983.0769,4105.1282,4090.7692,4001.5385,4109.7436,4121.5385,4125.1282,4141.0256,4267.1795,4090.2564,3782.5641,4023.5897
3984.6154,4103.5897,4093.8462,4005.1282,4097.4359,4115.8974,4121.0256,4134.8718,4261.0256,4084.1026,3786.6667,4027.1795
3990.7692,4104.6154,4098.4615,4008.7179,4088.2051,4103.5897,4121.0256,4134.359,4258.9744,4080.5128,3783.0769,4030.2564
3993.3333,4102.0513,4100,4010.2564,4096.9231,4104.6154,4122.5641,4135.8974,4263.0769,4085.641,3772.8205,4024.6154
3980,4103.5897,4097.9487,4005.641,4070.7692,4106.6667,4115.3846,4122.5641,4254.8718,4079.4872,3757.4359,4018.4615
3970.7692,4100.5128,4091.2821,3987.1795,4042.5641,4088.7179,4103.0769,4108.7179,4245.1282,4066.6667,3743.5897,4013.8462
3975.3846,4100.5128,4088.7179,3981.5385,4068.2051,4075.3846,4104.1026,4114.8718,4251.2821,4069.7436,3750.7692,4012.3077
3981.5385,4108.2051,4092.8205,3998.4615,4096.9231,4088.7179,4118.4615,4127.6923,4253.8462,4076.9231,3771.2821,4016.4103
3976.9231,4102.5641,4090.2564,3999.4872,4088.2051,4098.9744,4123.5897,4127.1795,4248.7179,4072.8205,3770.7692,4016.9231
3971.7949,4102.0513,4081.0256,3987.1795,4073.8462,4092.3077,4117.9487,4124.6154,4253.8462,4066.1538,3758.4615,4013.3333
3973.8462,4103.0769,4081.0256,3991.2821,4074.8718,4089.7436,4115.8974,4128.2051,4259.4872,4065.641,3762.5641,4011.7949
3980,4101.0256,4090.7692,4004.1026,4086.1538,4095.8974,4119.4872,4133.8462,4260.5128,4071.2821,3769.7436,4012.8205
3988.2051,4106.6667,4097.4359,4013.8462,4089.7436,4098.9744,4123.5897,4140,4265.1282,4074.359,3765.641,4016.4103
3989.2308,4102.5641,4094.359,4013.8462,4080.5128,4096.4103,4119.4872,4137.9487,4265.1282,4071.2821,3767.1795,4021.5385
3985.1282,4102.0513,4090.7692,4007.1795,4077.4359,4091.7949,4112.8205,4127.1795,4260,4072.3077,3778.4615,4020.5128
3980,4103.0769,4092.3077,4004.6154,4066.6667,4087.6923,4107.6923,4120.5128,4257.9487,4071.7949,3778.9744,4011.7949
3977.4359,4101.5385,4091.7949,4009.2308,4047.6923,4080,4104.6154,4120.5128,4256.9231,4066.1538,3765.641,4006.6667
3981.0256,4106.6667,4090.2564,4016.9231,4057.9487,4083.0769,4113.3333,4126.6667,4260,4069.7436,3762.5641,4012.8205
3983.0769,4101.5385,4092.8205,4016.4103,4083.5897,4092.8205,4120,4131.2821,4262.0513,4077.9487,3774.359,4016.9231
3980.5128,4101.0256,4094.8718,4007.1795,4078.4615,4088.2051,4111.7949,4125.1282,4250.7692,4074.359,3768.7179,4002.5641
3986.6667,4105.641,4094.359,4009.7436,4065.641,4079.4872,4104.1026,4118.4615,4248.7179,4073.8462,3756.4103,4001.0256
3996.4103,4101.5385,4095.3846,4020.5128,4067.6923,4083.5897,4107.1795,4121.0256,4262.5641,4076.4103,3767.1795,4015.3846
3986.1538,4100,4092.8205,4007.6923,4062.0513,4086.6667,4106.6667,4122.5641,4266.1538,4070.2564,3777.9487,4011.7949
3980.5128,4098.9744,4091.2821,3998.4615,4067.6923,4091.2821,4103.5897,4120.5128,4263.0769,4071.7949,3772.8205,4007.6923
3992.3077,4102.0513,4093.8462,4015.3846,4086.1538,4098.9744,4109.2308,4122.5641,4260.5128,4075.3846,3772.8205,4017.9487
3995.8974,4105.1282,4096.9231,4022.0513,4082.5641,4095.3846,4112.8205,4124.6154,4257.9487,4072.8205,3778.9744,4018.9744
3998.4615,4102.5641,4104.6154,4021.0256,4071.2821,4095.3846,4111.7949,4126.1538,4266.1538,4081.0256,3786.6667,4020
4006.1538,4105.641,4111.7949,4031.2821,4073.8462,4101.5385,4109.7436,4126.1538,4279.4872,4093.8462,3795.3846,4032.8205
4008.7179,4104.1026,4108.2051,4038.9744,4074.359,4096.4103,4106.6667,4123.5897,4272.8205,4087.6923,3795.3846,4032.8205
4008.7179,4104.1026,4103.5897,4036.9231,4073.8462,4089.7436,4104.1026,4120.5128,4263.0769,4081.0256,3785.1282,4024.6154
4015.8974,4107.6923,4107.6923,4042.5641,4086.6667,4101.5385,4109.7436,4121.0256,4271.7949,4090.2564,3781.5385,4031.7949
4020,4101.0256,4108.7179,4046.6667,4097.4359,4116.9231,4120,4128.7179,4276.9231,4094.359,3782.0513,4036.4103
4018.9744,4105.1282,4107.1795,4044.6154,4097.9487,4114.8718,4122.5641,4136.4103,4269.7436,4087.6923,3759.4872,4031.2821
4027.1795,4109.2308,4114.359,4052.3077,4087.6923,4110.2564,4120.5128,4137.9487,4272.8205,4095.3846,3732.3077,4040.5128
4037.9487,4105.641,4122.5641,4057.9487,4073.8462,4107.6923,4117.9487,4136.4103,4281.0256,4107.6923,3731.2821,4058.4615
4041.5385,4107.1795,4122.5641,4053.8462,4086.1538,4107.6923,4118.9744,4135.8974,4278.4615,4106.1538,3740,4057.4359
4040.5128,4105.641,4121.5385,4057.4359,4111.2821,4111.7949,4121.5385,4135.8974,4279.4872,4103.0769,3739.4872,4049.7436
4041.0256,4107.1795,4123.0769,4063.5897,4106.6667,4110.2564,4123.5897,4136.9231,4279.4872,4102.5641,3737.4359,4053.3333
4043.0769,4105.641,4117.9487,4057.9487,4089.2308,4107.1795,4121.0256,4137.4359,4268.2051,4094.359,3743.5897,4058.4615
4042.5641,4104.1026,4109.7436,4050.7692,4092.3077,4111.7949,4117.4359,4132.8205,4262.0513,4087.1795,3747.6923,4055.8974
4038.4615,4107.6923,4109.7436,4049.7436,4096.4103,4117.9487,4117.4359,4126.6667,4265.641,4090.2564,3724.1026,4049.2308
4036.9231,4100.5128,4110.7692,4052.3077,4094.8718,4120,4119.4872,4127.6923,4265.1282,4092.8205,3686.1538,4049.2308
4041.5385,4103.0769,4110.7692,4057.9487,4095.3846,4122.0513,4125.641,4134.8718,4268.2051,4092.3077,3679.4872,4058.9744
4047.6923,4108.7179,4112.3077,4060,4097.9487,4125.641,4131.7949,4139.4872,4277.9487,4092.8205,3700.5128,4066.1538
4044.6154,4103.5897,4111.2821,4061.0256,4098.9744,4123.5897,4130.7692,4137.4359,4277.9487,4091.2821,3700.5128,4057.4359
4039.4872,4103.0769,4110.2564,4065.641,4086.6667,4115.8974,4123.0769,4135.3846,4275.8974,4087.6923,3689.7436,4052.8205
4051.2821,4106.1538,4116.9231,4060,4077.4359,4114.359,4118.9744,4136.4103,4283.5897,4091.2821,3701.5385,4067.1795
4062.5641,4113.3333,4123.0769,4053.8462,4086.1538,4118.4615,4123.5897,4136.4103,4286.6667,4100.5128,3720,4073.3333
4061.5385,4110.7692,4127.1795,4068.2051,4092.3077,4120.5128,4131.2821,4142.5641,4279.4872,4108.7179,3730.7692,4073.3333
4067.6923,4106.1538,4137.9487,4082.0513,4096.9231,4118.9744,4136.4103,4153.8462,4279.4872,4119.4872,3730.2564,4088.2051
4073.3333,4111.7949,4141.0256,4073.8462,4102.5641,4120.5128,4135.8974,4150.7692,4281.5385,4124.6154,3725.641,4090.2564
4061.5385,4105.641,4125.641,4062.0513,4092.3077,4123.0769,4131.7949,4136.4103,4267.1795,4109.7436,3728.7179,4067.1795
4050.2564,4104.1026,4114.8718,4058.9744,4082.5641,4123.5897,4134.8718,4135.3846,4255.3846,4090.7692,3720,4054.8718
4050.7692,4109.2308,4118.4615,4061.5385,4094.8718,4125.641,4141.0256,4143.5897,4263.0769,4091.2821,3701.0256,4063.0769
4050.7692,4105.1282,4118.4615,4065.1282,4100.5128,4125.641,4137.4359,4139.4872,4265.641,4099.4872,3696.9231,4065.641
4049.2308,4106.1538,4116.4103,4065.1282,4086.6667,4121.0256,4130.2564,4136.4103,4260.5128,4101.5385,3703.0769,4062.0513
4056.9231,4108.2051,4122.0513,4071.7949,4092.3077,4124.1026,4134.359,4150.2564,4265.1282,4106.1538,3706.1538,4064.1026
4063.0769,4110.2564,4127.6923,4079.4872,4101.5385,4133.3333,4143.0769,4162.0513,4269.7436,4112.3077,3705.1282,4065.1282
4053.3333,4106.6667,4120.5128,4069.7436,4085.641,4131.7949,4139.4872,4149.7436,4262.0513,4107.6923,3701.5385,4061.0256
4050.7692,4102.0513,4123.0769,4066.6667,4083.0769,4127.6923,4135.8974,4140.5128,4261.0256,4109.7436,3713.8462,4067.6923
4065.1282,4111.2821,4138.9744,4077.4359,4094.8718,4127.1795,4139.4872,4151.2821,4272.8205,4124.6154,3729.2308,4078.9744
4063.0769,4107.6923,4130.2564,4068.2051,4088.2051,4120.5128,4131.7949,4147.1795,4270.7692,4121.0256,3715.3846,4068.2051
4047.1795,4105.1282,4111.2821,4057.9487,4087.1795,4116.4103,4124.6154,4129.7436,4256.9231,4102.5641,3713.3333,4057.4359
4055.8974,4113.3333,4116.9231,4074.8718,4107.6923,4124.1026,4133.8462,4141.5385,4257.9487,4104.6154,3745.641,4070.7692
4072.3077,4109.2308,4128.7179,4083.0769,4111.7949,4127.6923,4140,4176.4103,4266.1538,4112.3077,3761.0256,4081.5385
4065.641,4108.2051,4124.1026,4073.8462,4099.4872,4123.5897,4137.4359,4194.359,4262.5641,4105.641,3752.8205,4075.3846
4060.5128,4107.6923,4121.0256,4072.3077,4103.0769,4127.1795,4134.8718,4190.7692,4261.0256,4106.1538,3755.8974,4074.359
4063.5897,4103.0769,4125.641,4076.4103,4094.359,4127.6923,4132.8205,4186.1538,4266.1538,4115.3846,3763.0769,4074.359
4064.1026,4105.641,4133.3333,4075.3846,4076.9231,4126.1538,4135.3846,4193.8462,4266.1538,4120.5128,3766.1538,4076.9231
4073.8462,4108.2051,4142.5641,4083.0769,4084.1026,4132.8205,4142.5641,4204.6154,4266.6667,4131.2821,3775.8974,4092.8205
4076.4103,4111.2821,4142.0513,4085.641,4094.8718,4133.3333,4141.0256,4202.0513,4265.641,4137.4359,3775.3846,4091.2821
4068.2051,4108.2051,4134.8718,4072.3077,4087.6923,4126.1538,4138.9744,4192.8205,4259.4872,4127.6923,3765.641,4075.8974
4069.2308,4107.1795,4128.7179,4066.6667,4078.9744,4122.5641,4136.4103,4187.6923,4256.4103,4122.0513,3761.5385,4077.9487
4071.7949,4114.359,4125.1282,4074.359,4090.2564,4121.5385,4129.2308,4184.6154,4253.3333,4124.6154,3767.6923,4085.1282
4067.1795,4109.7436,4123.5897,4077.9487,4109.7436,4124.1026,4128.2051,4184.6154,4246.1538,4120,3775.8974,4082.0513
4065.1282,4110.2564,4123.0769,4074.359,4100.5128,4125.1282,4129.2308,4185.641,4246.6667,4110.7692,3766.1538,4070.7692
4065.1282,4111.7949,4121.5385,4073.3333,4070.2564,4117.9487,4122.0513,4180,4245.641,4107.6923,3759.4872,4062.0513
4065.1282,4108.2051,4123.5897,4081.0256,4078.9744,4115.3846,4120.5128,4174.359,4233.3333,4106.1538,3777.9487,4066.1538
4065.641,4111.7949,4126.1538,4077.4359,4109.2308,4116.4103,4125.1282,4172.8205,4229.2308,4107.1795,3786.1538,4067.6923
4061.0256,4108.7179,4122.5641,4056.9231,4095.3846,4102.5641,4120,4169.2308,4231.7949,4109.2308,3774.359,4055.3846
4056.9231,4108.7179,4122.5641,4055.3846,4071.2821,4094.359,4115.8974,4164.1026,4222.5641,4105.641,3782.0513,4053.3333
4062.0513,4108.7179,4127.6923,4074.8718,4087.1795,4103.5897,4120.5128,4160.5128,4212.3077,4097.9487,3802.0513,4065.1282
4065.641,4104.6154,4125.1282,4075.3846,4101.5385,4103.5897,4118.4615,4158.4615,4215.3846,4095.8974,3805.1282,4065.641
4054.359,4105.641,4111.7949,4055.8974,4084.6154,4090.2564,4109.7436,4155.8974,4217.4359,4092.3077,3794.359,4048.2051
4042.0513,4101.0256,4104.6154,4048.7179,4068.2051,4085.1282,4101.5385,4151.7949,4212.3077,4084.6154,3792.8205,4036.9231
4048.7179,4104.6154,4113.8462,4055.8974,4063.5897,4081.5385,4098.4615,4150.7692,4207.6923,4085.641,3806.6667,4045.641
4059.4872,4109.2308,4118.9744,4058.9744,4064.6154,4078.9744,4102.5641,4153.8462,4206.6667,4091.2821,3814.8718,4054.8718
4049.7436,4102.0513,4109.2308,4051.2821,4065.1282,4082.5641,4103.5897,4152.3077,4203.0769,4085.641,3805.1282,4040.5128
4040.5128,4104.1026,4104.6154,4049.7436,4064.1026,4081.5385,4100,4148.2051,4199.4872,4080,3804.1026,4030.7692
4052.3077,4105.1282,4112.3077,4063.0769,4070.7692,4083.5897,4102.5641,4149.7436,4200.5128,4083.0769,3817.4359,4046.6667
4054.8718,4102.5641,4110.7692,4063.0769,4071.2821,4088.2051,4104.1026,4145.641,4201.0256,4080.5128,3814.8718,4046.1538
4046.1538,4102.0513,4103.0769,4054.8718,4060.5128,4082.5641,4100.5128,4137.4359,4199.4872,4079.4872,3809.7436,4032.8205
4052.8205,4101.5385,4111.7949,4061.0256,4063.0769,4077.4359,4097.4359,4137.9487,4198.9744,4090.2564,3821.0256,4042.0513
4062.5641,4108.7179,4121.0256,4066.1538,4072.3077,4079.4872,4096.9231,4142.5641,4198.4615,4092.3077,3832.8205,4052.8205
4067.1795,4109.2308,4121.5385,4064.6154,4068.7179,4085.1282,4097.4359,4141.0256,4199.4872,4087.1795,3840,4051.7949
4071.7949,4107.1795,4122.5641,4068.2051,4064.6154,4088.7179,4099.4872,4139.4872,4202.0513,4097.4359,3846.6667,4057.4359
4076.4103,4108.7179,4125.1282,4074.359,4077.4359,4086.6667,4098.4615,4142.0513,4202.0513,4109.7436,3855.3846,4069.7436
4080.5128,4105.641,4126.1538,4076.4103,4092.8205,4082.5641,4096.4103,4142.5641,4198.4615,4107.1795,3866.1538,4077.4359
4078.9744,4111.7949,4124.6154,4079.4872,4090.7692,4085.641,4094.8718,4140,4196.9231,4102.5641,3867.6923,4071.2821
4079.4872,4113.8462,4122.5641,4085.1282,4083.0769,4090.2564,4093.8462,4142.0513,4196.4103,4105.1282,3865.1282,4064.1026
4091.7949,4112.8205,4126.6667,4093.3333,4088.7179,4091.7949,4102.5641,4145.1282,4193.8462,4106.6667,3871.2821,4071.7949
4090.2564,4113.3333,4123.0769,4091.2821,4087.6923,4095.8974,4107.6923,4140.5128,4183.5897,4096.4103,3866.6667,4066.6667
4070.2564,4104.1026,4106.6667,4080,4075.3846,4095.3846,4097.9487,4132.3077,4170.7692,4087.1795,3855.3846,4044.1026
4070.7692,4105.641,4109.7436,4076.4103,4076.4103,4095.8974,4098.4615,4133.8462,4173.8462,4094.8718,3865.641,4051.2821
4091.2821,4109.7436,4125.641,4078.9744,4074.359,4100,4108.2051,4139.4872,4186.6667,4104.6154,3872.3077,4077.9487
4095.3846,4108.7179,4122.5641,4081.5385,4070.2564,4100,4105.641,4137.4359,4187.6923,4103.0769,3858.9744,4080.5128
4086.1538,4113.3333,4118.9744,4088.7179,4088.7179,4101.0256,4102.0513,4140,4182.0513,4104.1026,3850.2564,4073.3333
4090.2564,4109.7436,4134.8718,4090.7692,4097.9487,4106.6667,4106.1538,4151.2821,4189.2308,4114.8718,3857.9487,4081.5385
4101.0256,4111.2821,4142.0513,4083.5897,4088.7179,4110.7692,4109.2308,4154.359,4202.5641,4121.0256,3868.7179,4088.7179
4100,4112.8205,4128.7179,4088.2051,4101.5385,4113.3333,4112.3077,4150.2564,4204.1026,4121.5385,3879.4872,4084.1026
4093.3333,4107.6923,4118.4615,4098.9744,4116.9231,4111.2821,4115.3846,4150.2564,4196.9231,4120,3885.641,4079.4872
4100,4113.8462,4125.1282,4092.3077,4106.6667,4104.1026,4114.359,4153.3333,4200.5128,4120,3889.2308,4086.6667
4114.359,4113.8462,4139.4872,4093.8462,4104.6154,4109.7436,4117.9487,4156.4103,4211.7949,4127.6923,3906.6667,4101.0256
4109.7436,4111.7949,4140,4107.6923,4111.7949,4113.3333,4123.5897,4156.4103,4207.1795,4128.7179,3911.2821,4103.0769
4095.3846,4112.8205,4132.3077,4109.7436,4109.2308,4106.6667,4121.5385,4154.8718,4197.4359,4121.5385,3897.9487,4094.359
4101.0256,4111.7949,4135.8974,4105.641,4107.6923,4113.3333,4121.5385,4158.9744,4198.9744,4127.6923,3899.4872,4089.7436
4108.7179,4113.8462,4139.4872,4107.6923,4104.6154,4117.9487,4123.5897,4157.4359,4199.4872,4136.4103,3910.7692,4089.2308
4103.5897,4111.2821,4131.2821,4109.2308,4104.1026,4109.7436,4119.4872,4151.7949,4197.9487,4129.7436,3907.6923,4093.3333
4100.5128,4113.3333,4124.1026,4106.6667,4108.7179,4111.7949,4119.4872,4153.8462,4198.9744,4123.5897,3903.0769,4090.7692
4105.641,4113.8462,4125.1282,4107.1795,4108.7179,4118.9744,4125.641,4156.9231,4192.8205,4126.1538,3910.7692,4084.1026
4106.1538,4110.2564,4124.1026,4108.7179,4106.6667,4115.3846,4127.1795,4153.8462,4184.1026,4124.1026,3917.4359,4085.641
4099.4872,4114.8718,4121.0256,4108.2051,4108.2051,4115.8974,4127.1795,4153.3333,4186.1538,4121.0256,3918.4615,4089.2308
4101.0256,4110.7692,4121.5385,4104.1026,4111.2821,4123.5897,4130.7692,4154.8718,4187.1795,4124.1026,3926.1538,4091.7949
4107.1795,4111.2821,4125.1282,4102.5641,4109.7436,4122.0513,4128.2051,4151.7949,4183.0769,4127.6923,3935.3846,4099.4872
4107.6923,4117.9487,4125.1282,4104.6154,4106.6667,4117.4359,4121.0256,4151.7949,4181.5385,4125.641,3940.5128,4101.5385
4113.3333,4114.8718,4124.6154,4111.2821,4114.8718,4120.5128,4121.5385,4151.2821,4183.0769,4129.2308,3947.6923,4100
4119.4872,4118.4615,4127.6923,4121.0256,4120.5128,4122.0513,4127.1795,4144.6154,4187.1795,4137.4359,3954.8718,4102.0513
4112.3077,4114.8718,4126.1538,4118.4615,4102.5641,4118.4615,4121.5385,4136.4103,4182.5641,4135.3846,3951.2821,4095.8974
4107.1795,4109.2308,4122.5641,4110.2564,4091.2821,4114.359,4117.9487,4135.8974,4173.8462,4128.2051,3948.2051,4087.6923
4120,4116.4103,4127.1795,4117.9487,4111.2821,4116.4103,4130.7692,4146.1538,4181.0256,4133.8462,3961.0256,4101.5385
4126.1538,4114.359,4128.2051,4129.2308,4108.7179,4121.5385,4134.359,4154.8718,4192.3077,4141.0256,3971.7949,4112.3077
4117.4359,4114.359,4122.0513,4118.9744,4087.1795,4120.5128,4123.5897,4156.4103,4188.2051,4137.4359,3970.2564,4102.5641
4120.5128,4115.8974,4124.6154,4111.7949,4096.4103,4117.9487,4122.0513,4158.4615,4182.5641,4136.9231,3973.3333,4105.1282
4126.1538,4116.4103,4131.2821,4122.0513,4110.2564,4116.9231,4126.6667,4158.9744,4184.6154,4137.4359,3974.8718,4115.3846
4122.5641,4120.5128,4131.7949,4125.1282,4112.8205,4116.4103,4123.5897,4155.3846,4186.6667,4135.3846,3970.7692,4109.2308
4129.2308,4118.9744,4134.359,4123.0769,4123.0769,4118.9744,4121.5385,4153.8462,4186.6667,4142.5641,3979.4872,4108.7179
4137.9487,4118.9744,4136.9231,4123.0769,4123.5897,4117.4359,4118.9744,4147.6923,4182.0513,4146.6667,3984.1026,4114.8718
4132.8205,4116.4103,4137.9487,4118.9744,4111.7949,4113.8462,4115.3846,4140.5128,4177.4359,4143.0769,3980.5128,4115.3846
4129.2308,4114.8718,4139.4872,4117.9487,4101.5385,4115.3846,4120.5128,4143.0769,4181.0256,4147.1795,3987.6923,4116.4103
4136.9231,4117.9487,4140,4126.6667,4101.5385,4118.9744,4123.0769,4145.641,4186.1538,4155.8974,3995.8974,4123.5897
4144.6154,4113.8462,4138.9744,4128.7179,4112.3077,4122.5641,4122.0513,4148.7179,4186.1538,4153.8462,3997.4359,4126.6667
4142.0513,4116.9231,4139.4872,4122.0513,4116.4103,4129.2308,4131.7949,4157.9487,4179.4872,4147.1795,3999.4872,4123.5897
4134.8718,4115.8974,4138.9744,4121.0256,4116.4103,4134.8718,4140,4161.5385,4178.4615,4145.641,3996.9231,4117.4359
4131.7949,4110.7692,4137.9487,4125.1282,4124.6154,4129.2308,4130.7692,4156.4103,4183.0769,4143.5897,3986.6667,4112.8205
4128.2051,4114.8718,4134.359,4124.1026,4104.6154,4116.4103,4121.5385,4147.6923,4174.8718,4135.8974,3979.4872,4110.2564
4127.1795,4111.7949,4133.3333,4115.8974,4081.5385,4114.8718,4124.1026,4144.1026,4164.6154,4133.8462,3985.641,4110.7692
4134.359,4114.359,4142.0513,4116.4103,4109.7436,4124.6154,4128.7179,4150.2564,4174.8718,4145.1282,3995.3846,4116.9231
4144.6154,4120,4154.359,4130.7692,4129.7436,4129.2308,4132.3077,4156.9231,4189.7436,4160,4000,4127.6923
4143.5897,4114.359,4152.3077,4132.8205,4105.641,4125.1282,4130.7692,4149.2308,4183.0769,4156.9231,3993.3333,4127.6923
4131.7949,4114.8718,4142.0513,4118.4615,4100.5128,4120,4121.5385,4134.8718,4170.7692,4142.0513,3982.0513,4114.359
4128.7179,4114.359,4140,4115.3846,4117.4359,4120,4112.3077,4127.1795,4169.7436,4137.9487,3986.1538,4107.1795
4132.3077,4116.9231,4142.5641,4126.6667,4112.3077,4120.5128,4111.7949,4127.6923,4166.6667,4138.4615,3996.4103,4108.2051
4130.7692,4118.4615,4142.5641,4122.5641,4090.7692,4120,4118.4615,4129.7436,4156.4103,4131.7949,3996.4103,4108.2051
4128.7179,4112.8205,4141.0256,4109.2308,4093.3333,4115.8974,4117.9487,4128.7179,4153.8462,4127.1795,3996.4103,4109.2308
4125.1282,4115.3846,4134.359,4106.1538,4108.2051,4108.2051,4109.7436,4124.1026,4153.3333,4127.1795,4000.5128,4104.1026
4110.7692,4109.7436,4118.9744,4098.4615,4098.9744,4096.4103,4096.4103,4114.359,4141.0256,4117.4359,3995.8974,4090.7692
4097.9487,4104.6154,4107.1795,4084.1026,4076.4103,4085.641,4087.6923,4104.6154,4131.2821,4102.5641,3982.0513,4081.0256
4105.641,4111.7949,4112.8205,4086.6667,4084.6154,4089.2308,4095.3846,4110.2564,4137.9487,4106.1538,3983.0769,4082.0513
4114.8718,4113.3333,4124.6154,4090.7692,4105.1282,4095.3846,4103.0769,4123.5897,4145.641,4121.0256,4001.5385,4089.7436
4109.2308,4114.359,4125.1282,4077.4359,4099.4872,4088.7179,4101.5385,4123.5897,4141.0256,4122.0513,4014.359,4092.8205
4104.6154,4108.7179,4115.8974,4074.359,4082.0513,4085.1282,4099.4872,4116.4103,4131.7949,4113.8462,4010.2564,4090.2564
4105.1282,4104.6154,4111.7949,4082.0513,4075.8974,4083.0769,4101.0256,4118.4615,4124.6154,4108.7179,4001.5385,4086.1538
4101.5385,4108.2051,4117.4359,4082.0513,4084.1026,4081.5385,4101.0256,4124.6154,4115.8974,4108.7179,4003.5897,4083.0769
4092.8205,4103.0769,4120.5128,4081.0256,4086.6667,4085.641,4104.1026,4119.4872,4109.2308,4107.6923,3998.4615,4079.4872
4084.6154,4106.6667,4113.3333,4074.8718,4081.0256,4087.1795,4110.2564,4108.7179,4104.1026,4102.0513,3986.1538,4070.7692
4086.1538,4109.7436,4110.2564,4067.1795,4087.1795,4084.6154,4108.7179,4106.1538,4098.4615,4100,3988.7179,4064.6154
4090.7692,4107.6923,4117.9487,4075.8974,4094.8718,4086.1538,4106.6667,4109.2308,4097.4359,4104.1026,3998.9744,4068.2051
4092.8205,4109.7436,4124.1026,4092.8205,4086.6667,4091.7949,4110.7692,4110.2564,4100,4108.7179,4004.1026,4075.3846
4093.3333,4103.5897,4124.6154,4091.2821,4088.7179,4094.8718,4110.2564,4108.7179,4098.4615,4109.2308,4006.1538,4075.3846
4085.641,4104.1026,4116.4103,4074.359,4092.8205,4090.2564,4100.5128,4101.5385,4089.2308,4109.7436,4001.0256,4064.1026
4075.3846,4107.1795,4104.1026,4066.1538,4068.2051,4083.5897,4093.3333,4093.3333,4085.1282,4104.6154,3995.8974,4060.5128
4081.0256,4109.7436,4109.2308,4075.8974,4063.5897,4086.6667,4101.0256,4099.4872,4094.359,4103.0769,4011.7949,4075.8974
4093.8462,4114.8718,4123.0769,4085.1282,4085.1282,4093.8462,4108.7179,4109.7436,4105.641,4112.3077,4030.7692,4087.1795
4098.4615,4107.6923,4124.1026,4082.5641,4084.6154,4093.3333,4106.1538,4108.7179,4105.641,4121.0256,4033.8462,4083.5897
4100,4109.7436,4123.5897,4081.5385,4078.9744,4094.359,4106.6667,4108.2051,4103.0769,4124.6154,4031.2821,4080
4099.4872,4114.359,4122.0513,4082.0513,4094.8718,4096.4103,4108.2051,4110.2564,4100.5128,4117.4359,4031.7949,4081.5385
4095.8974,4110.7692,4112.8205,4080.5128,4098.4615,4098.4615,4107.1795,4106.6667,4092.8205,4103.5897,4034.359,4082.0513
4101.5385,4114.359,4113.3333,4085.1282,4088.2051,4106.6667,4112.8205,4105.641,4096.9231,4110.2564,4035.8974,4086.6667
4109.7436,4112.8205,4124.6154,4090.7692,4095.3846,4106.6667,4110.7692,4109.7436,4105.641,4125.1282,4041.0256,4093.3333
4109.2308,4110.2564,4122.5641,4088.7179,4080,4089.2308,4099.4872,4106.1538,4096.9231,4113.3333,4043.5897,4089.7436
4111.2821,4110.2564,4116.9231,4088.2051,4060.5128,4087.1795,4107.1795,4104.6154,4095.3846,4104.6154,4047.1795,4093.8462
4120,4112.3077,4128.2051,4094.8718,4097.4359,4106.1538,4120.5128,4112.3077,4107.1795,4123.5897,4055.3846,4108.7179
4118.9744,4116.9231,4136.9231,4093.3333,4130.2564,4110.7692,4114.359,4111.7949,4103.5897,4124.6154,4055.3846,4105.1282
4112.8205,4109.2308,4132.3077,4089.2308,4108.7179,4105.1282,4109.7436,4107.1795,4095.8974,4107.1795,4057.4359,4095.8974
4126.1538,4113.3333,4133.8462,4102.5641,4095.8974,4109.2308,4117.4359,4110.7692,4104.1026,4114.359,4072.3077,4107.1795
4150.2564,4124.6154,4143.5897,4117.4359,4111.2821,4108.2051,4114.8718,4113.8462,4108.2051,4129.7436,4082.5641,4125.641
4180,4125.641,4153.3333,4123.0769,4112.3077,4101.0256,4106.6667,4108.7179,4109.2308,4135.8974,4091.7949,4145.641
4227.6923,4135.8974,4171.7949,4134.359,4098.9744,4098.4615,4107.6923,4103.0769,4125.1282,4146.6667,4119.4872,4186.1538
4288.7179,4141.5385,4195.8974,4150.7692,4101.5385,4095.8974,4107.6923,4100,4138.4615,4160.5128,4147.6923,4233.8462
4345.641,4144.1026,4215.3846,4162.5641,4112.3077,4092.8205,4101.5385,4098.9744,4141.5385,4171.2821,4165.1282,4270.2564
4399.4872,4152.8205,4233.8462,4176.9231,4118.4615,4093.3333,4095.3846,4100,4150.7692,4187.1795,4191.2821,4308.7179
4442.0513,4154.359,4251.2821,4194.8718,4117.9487,4092.3077,4091.2821,4099.4872,4167.6923,4202.5641,4222.0513,4351.2821
4454.8718,4154.359,4254.359,4197.4359,4107.6923,4089.7436,4091.7949,4093.8462,4174.359,4205.641,4234.8718,4372.3077
4449.7436,4144.6154,4248.2051,4188.2051,4101.5385,4091.2821,4090.7692,4095.3846,4169.7436,4203.0769,4238.9744,4373.3333
4448.2051,4139.4872,4245.641,4186.6667,4113.8462,4092.3077,4092.3077,4098.9744,4171.2821,4200.5128,4235.8974,4377.4359
4450.2564,4144.6154,4250.2564,4191.2821,4126.1538,4092.3077,4102.0513,4098.4615,4183.5897,4202.5641,4236.4103,4383.5897
4442.5641,4138.4615,4250.2564,4190.2564,4118.4615,4093.3333,4105.641,4102.5641,4185.641,4207.6923,4248.2051,4379.4872
4422.0513,4134.8718,4238.9744,4185.641,4115.3846,4091.7949,4102.5641,4108.2051,4173.8462,4205.641,4248.7179,4363.5897
4403.0769,4132.3077,4232.8205,4187.1795,4125.641,4092.3077,4103.0769,4106.1538,4170.2564,4200,4239.4872,4348.2051
4385.641,4128.7179,4231.2821,4186.1538,4125.1282,4101.0256,4108.2051,4110.2564,4173.8462,4200,4234.359,4327.6923
4363.0769,4127.1795,4223.0769,4176.9231,4119.4872,4106.1538,4116.9231,4123.5897,4172.8205,4201.0256,4223.5897,4302.0513
4337.4359,4120,4212.8205,4166.6667,4117.9487,4101.0256,4117.4359,4117.9487,4164.6154,4192.8205,4207.1795,4287.6923
4315.3846,4124.1026,4206.1538,4158.4615,4127.1795,4098.9744,4112.3077,4107.1795,4155.3846,4181.5385,4198.9744,4275.8974
4298.9744,4123.5897,4195.3846,4154.8718,4140.5128,4105.641,4114.359,4116.4103,4149.2308,4173.3333,4189.7436,4256.9231
4282.5641,4117.4359,4182.0513,4153.3333,4140,4106.1538,4115.3846,4122.0513,4142.5641,4161.5385,4171.2821,4237.9487
4267.1795,4122.0513,4180.5128,4152.3077,4135.8974,4097.4359,4109.7436,4119.4872,4139.4872,4155.8974,4167.6923,4227.6923
4255.3846,4117.4359,4181.5385,4145.641,4123.5897,4093.8462,4108.2051,4117.9487,4142.0513,4157.4359,4170.2564,4221.5385
4243.5897,4115.3846,4174.8718,4135.8974,4097.4359,4093.3333,4108.7179,4115.3846,4137.4359,4156.4103,4156.4103,4208.2051
4232.8205,4117.4359,4167.6923,4131.7949,4098.9744,4097.4359,4109.7436,4118.4615,4127.6923,4154.359,4147.1795,4195.8974
4229.7436,4116.9231,4169.2308,4136.4103,4133.8462,4105.1282,4119.4872,4131.7949,4131.7949,4155.3846,4152.8205,4193.8462
4223.5897,4122.0513,4170.7692,4140,4143.0769,4108.7179,4126.1538,4139.4872,4142.0513,4154.8718,4153.3333,4193.3333
4217.4359,4119.4872,4168.2051,4138.9744,4127.1795,4107.6923,4123.0769,4137.9487,4140,4154.8718,4153.3333,4188.7179
4213.8462,4123.0769,4167.6923,4138.4615,4120.5128,4109.7436,4121.0256,4133.8462,4135.8974,4157.4359,4158.9744,4185.641
4207.1795,4127.1795,4167.1795,4138.4615,4120.5128,4117.9487,4120,4131.2821,4135.8974,4156.4103,4158.4615,4186.1538
4206.6667,4123.5897,4167.1795,4136.4103,4135.8974,4125.641,4122.5641,4137.4359,4137.9487,4156.4103,4161.0256,4187.1795
4205.641,4127.6923,4167.6923,4138.9744,4146.1538,4122.5641,4125.641,4145.641,4139.4872,4160,4165.641,4183.0769
4191.7949,4122.5641,4159.4872,4141.0256,4119.4872,4110.2564,4120.5128,4142.0513,4128.7179,4156.9231,4157.4359,4169.7436
4180,4116.9231,4151.2821,4132.3077,4107.6923,4109.7436,4117.9487,4134.359,4118.4615,4150.7692,4149.7436,4162.0513
4180.5128,4118.4615,4151.2821,4127.1795,4138.4615,4120.5128,4127.1795,4135.3846,4127.6923,4152.8205,4152.3077,4167.6923
4178.4615,4116.4103,4154.359,4134.8718,4155.8974,4129.7436,4136.9231,4141.5385,4137.9487,4154.8718,4153.3333,4166.1538
4169.7436,4121.0256,4151.7949,4139.4872,4135.8974,4131.2821,4138.4615,4140,4136.4103,4150.7692,4149.7436,4150.7692
4163.5897,4119.4872,4144.6154,4136.9231,4128.2051,4128.7179,4134.359,4135.8974,4136.9231,4149.7436,4151.7949,4144.1026
4158.9744,4121.0256,4139.4872,4138.4615,4147.6923,4129.7436,4134.359,4145.1282,4140.5128,4151.7949,4153.3333,4149.7436
4158.9744,4124.6154,4138.4615,4142.0513,4153.8462,4137.9487,4145.641,4160.5128,4142.5641,4152.3077,4154.8718,4150.2564
4156.4103,4117.9487,4138.4615,4138.4615,4138.9744,4140.5128,4150.2564,4161.5385,4142.0513,4150.7692,4155.8974,4141.5385
4151.7949,4120.5128,4142.0513,4135.8974,4133.8462,4134.8718,4145.641,4156.4103,4138.4615,4150.7692,4155.3846,4133.3333
4160,4123.5897,4149.7436,4141.0256,4142.0513,4142.0513,4149.2308,4160.5128,4138.4615,4155.8974,4158.4615,4140
4155.8974,4120,4146.1538,4135.3846,4122.5641,4138.4615,4147.6923,4153.3333,4133.3333,4149.7436,4150.7692,4140.5128
4131.7949,4118.4615,4137.4359,4121.0256,4105.641,4120,4136.4103,4135.3846,4123.0769,4135.3846,4134.8718,4124.1026
4132.8205,4117.9487,4140.5128,4127.1795,4124.1026,4127.1795,4137.4359,4133.8462,4123.0769,4141.0256,4141.0256,4115.3846
4150.7692,4126.6667,4145.641,4137.9487,4130.2564,4138.9744,4140,4140,4128.2051,4152.8205,4151.2821,4121.5385
4145.1282,4122.0513,4141.5385,4128.7179,4124.6154,4122.5641,4126.6667,4137.4359,4127.1795,4143.0769,4143.5897,4125.641
4127.6923,4113.3333,4131.7949,4118.9744,4137.9487,4111.7949,4120.5128,4131.7949,4120.5128,4127.1795,4135.8974,4117.4359
4120,4117.4359,4125.1282,4117.4359,4141.0256,4116.9231,4125.1282,4129.2308,4108.2051,4122.5641,4131.2821,4103.5897
4115.3846,4114.8718,4121.5385,4109.2308,4122.5641,4108.7179,4121.5385,4123.5897,4097.9487,4122.0513,4122.5641,4095.8974
4112.8205,4116.9231,4121.0256,4107.6923,4115.3846,4101.5385,4120,4122.0513,4094.359,4118.4615,4118.9744,4094.359
4112.8205,4116.9231,4120,4109.2308,4113.3333,4106.1538,4122.5641,4124.6154,4093.8462,4111.7949,4120,4091.7949
4106.6667,4111.2821,4114.359,4099.4872,4094.359,4098.9744,4116.4103,4120.5128,4089.7436,4105.1282,4115.8974,4082.5641
4097.9487,4111.7949,4107.1795,4091.2821,4070.2564,4088.2051,4113.3333,4117.9487,4085.1282,4105.641,4113.8462,4075.3846
4101.5385,4108.2051,4109.2308,4094.8718,4075.8974,4094.8718,4115.3846,4122.5641,4087.1795,4110.7692,4120.5128,4082.5641
4105.641,4112.8205,4113.8462,4103.0769,4110.7692,4098.9744,4112.8205,4122.0513,4088.7179,4113.8462,4125.641,4090.2564
4096.4103,4115.8974,4107.1795,4101.0256,4115.3846,4087.6923,4105.1282,4114.359,4081.5385,4108.2051,4118.9744,4083.0769
4092.3077,4112.3077,4105.641,4097.4359,4095.3846,4083.0769,4107.6923,4115.3846,4077.4359,4106.1538,4113.3333,4077.9487
4097.4359,4117.9487,4115.3846,4104.6154,4100.5128,4091.2821,4115.8974,4125.641,4080,4114.8718,4118.9744,4081.0256
4101.0256,4115.8974,4121.5385,4113.3333,4117.4359,4100,4120.5128,4132.3077,4084.1026,4124.1026,4123.0769,4085.641
4102.0513,4114.359,4127.1795,4109.7436,4115.8974,4103.5897,4124.1026,4134.8718,4091.2821,4130.2564,4122.5641,4090.2564
4100.5128,4115.3846,4129.2308,4100.5128,4103.0769,4100.5128,4120.5128,4136.9231,4089.7436,4127.6923,4124.1026,4089.2308
4098.4615,4116.4103,4123.5897,4102.5641,4099.4872,4100.5128,4117.9487,4135.3846,4078.9744,4120.5128,4123.5897,4086.1538
4100.5128,4121.5385,4124.1026,4110.2564,4103.0769,4103.0769,4124.6154,4129.2308,4083.5897,4119.4872,4122.0513,4088.2051
4101.0256,4116.4103,4130.7692,4111.7949,4105.641,4099.4872,4120,4123.0769,4092.3077,4122.0513,4126.1538,4084.6154
4093.8462,4115.8974,4125.1282,4108.2051,4092.3077,4088.2051,4105.1282,4120,4088.7179,4120,4125.641,4076.4103
4090.7692,4118.9744,4118.9744,4105.641,4076.4103,4087.1795,4107.1795,4121.0256,4087.6923,4117.9487,4121.5385,4081.0256
4101.0256,4117.9487,4130.7692,4105.641,4095.8974,4101.0256,4117.9487,4123.5897,4092.3077,4123.5897,4129.7436,4093.3333
4104.6154,4122.0513,4136.4103,4109.7436,4120.5128,4105.641,4114.359,4126.1538,4092.3077,4127.1795,4134.8718,4093.8462
4088.7179,4113.8462,4125.1282,4110.2564,4114.8718,4103.0769,4106.6667,4124.6154,4091.7949,4125.1282,4125.641,4084.6154
4079.4872,4114.359,4119.4872,4098.9744,4109.7436,4109.2308,4110.7692,4123.5897,4093.3333,4123.0769,4118.4615,4076.9231
4090.7692,4123.0769,4123.5897,4094.359,4121.0256,4117.4359,4118.9744,4132.3077,4088.2051,4120,4122.0513,4075.8974
4092.8205,4116.9231,4122.0513,4108.2051,4133.3333,4118.9744,4123.0769,4137.4359,4085.1282,4112.8205,4132.3077,4080
4077.4359,4114.8718,4113.8462,4112.3077,4124.6154,4117.9487,4124.6154,4131.7949,4085.1282,4107.1795,4135.8974,4076.4103
4065.641,4110.7692,4106.1538,4088.2051,4085.641,4112.8205,4116.4103,4124.6154,4072.8205,4101.0256,4123.0769,4061.0256
4067.1795,4109.2308,4105.1282,4072.3077,4065.641,4104.6154,4106.6667,4122.0513,4064.1026,4098.4615,4112.3077,4052.3077
4075.3846,4117.9487,4111.2821,4078.9744,4102.0513,4106.6667,4112.8205,4122.0513,4074.359,4104.6154,4121.0256,4062.5641
4077.4359,4113.8462,4111.2821,4081.5385,4115.3846,4110.2564,4118.4615,4123.0769,4084.1026,4109.2308,4127.6923,4069.2308
4067.6923,4109.7436,4105.641,4073.3333,4081.5385,4105.1282,4112.8205,4123.5897,4078.4615,4107.1795,4121.0256,4056.9231
4062.5641,4109.7436,4107.1795,4066.6667,4087.1795,4103.0769,4107.6923,4122.5641,4075.8974,4106.1538,4121.0256,4056.4103
4063.5897,4111.7949,4109.2308,4059.4872,4107.1795,4102.0513,4105.641,4125.641,4082.0513,4108.7179,4122.5641,4067.1795
4062.0513,4117.4359,4107.1795,4055.8974,4090.7692,4102.0513,4102.0513,4130.2564,4083.5897,4109.2308,4120,4063.5897
4062.0513,4114.8718,4108.2051,4061.5385,4091.2821,4103.5897,4101.0256,4126.6667,4080.5128,4111.7949,4122.5641,4058.9744
4061.5385,4115.3846,4113.3333,4060,4108.7179,4104.6154,4108.2051,4122.5641,4081.0256,4116.4103,4127.6923,4064.1026
4062.5641,4116.4103,4113.3333,4058.4615,4106.1538,4109.7436,4115.3846,4131.7949,4085.1282,4119.4872,4133.3333,4067.6923
4061.5385,4113.3333,4109.7436,4057.9487,4095.3846,4110.2564,4115.3846,4141.0256,4082.0513,4122.0513,4132.3077,4061.0256
4055.8974,4114.359,4106.1538,4054.359,4093.3333,4104.1026,4113.3333,4138.4615,4075.8974,4120,4120,4054.8718
4056.9231,4111.2821,4107.1795,4059.4872,4087.6923,4104.6154,4114.8718,4137.4359,4074.359,4113.8462,4115.8974,4056.9231
4063.0769,4117.9487,4111.7949,4063.5897,4085.641,4108.7179,4115.8974,4142.0513,4074.8718,4115.8974,4125.641,4058.9744
4061.0256,4120,4106.6667,4060,4092.3077,4105.1282,4112.8205,4140.5128,4073.8462,4106.1538,4129.2308,4052.3077
4052.8205,4110.7692,4095.8974,4057.9487,4094.359,4101.0256,4109.2308,4134.359,4072.3077,4076.9231,4121.5385,4047.6923
4051.2821,4112.3077,4096.4103,4057.4359,4094.359,4101.5385,4109.2308,4132.8205,4071.2821,4061.5385,4118.9744,4051.7949
4057.9487,4113.3333,4105.641,4057.4359,4106.1538,4109.7436,4115.3846,4138.4615,4076.9231,4072.8205,4129.2308,4061.5385
4067.1795,4118.4615,4106.1538,4063.5897,4116.4103,4118.4615,4123.5897,4141.5385,4086.6667,4080,4135.8974,4062.0513
4069.7436,4119.4872,4103.5897,4064.1026,4113.3333,4118.4615,4122.5641,4143.5897,4091.7949,4076.4103,4136.4103,4055.8974
4062.0513,4112.3077,4104.1026,4055.8974,4107.6923,4115.8974,4122.0513,4151.7949,4091.7949,4077.9487,4137.4359,4060
4053.8462,4113.8462,4102.0513,4061.0256,4103.5897,4118.9744,4123.0769,4150.2564,4093.3333,4082.5641,4134.8718,4064.1026
4065.1282,4115.8974,4104.1026,4073.3333,4106.1538,4120.5128,4120,4141.5385,4094.359,4089.2308,4136.4103,4064.6154
4077.4359,4118.9744,4112.3077,4075.8974,4116.9231,4118.4615,4120.5128,4146.1538,4092.3077,4091.7949,4143.5897,4071.7949
4075.3846,4120,4113.3333,4079.4872,4127.6923,4122.5641,4122.5641,4155.8974,4093.3333,4089.7436,4138.9744,4078.4615
4075.8974,4115.8974,4106.6667,4081.5385,4126.1538,4123.5897,4117.9487,4150.7692,4092.3077,4089.2308,4123.5897,4071.2821
4081.5385,4121.5385,4106.6667,4082.0513,4104.1026,4117.9487,4120,4149.7436,4090.7692,4091.2821,4120.5128,4068.7179
4085.641,4119.4872,4114.359,4088.7179,4101.5385,4123.5897,4128.7179,4160,4092.3077,4097.4359,4130.2564,4080
4080,4112.3077,4112.3077,4086.1538,4106.6667,4123.0769,4125.1282,4157.9487,4087.1795,4097.4359,4126.6667,4075.8974
4065.1282,4112.3077,4096.9231,4072.3077,4086.6667,4108.2051,4116.9231,4149.7436,4075.8974,4089.7436,4112.3077,4058.9744
4060.5128,4112.8205,4092.3077,4070.7692,4086.6667,4107.6923,4118.9744,4150.7692,4073.8462,4087.6923,4112.8205,4058.4615
4075.8974,4118.4615,4104.1026,4081.0256,4122.5641,4121.5385,4123.5897,4153.8462,4083.5897,4098.9744,4127.6923,4076.4103
4092.3077,4117.4359,4117.4359,4094.359,4135.8974,4127.6923,4122.5641,4152.8205,4091.2821,4110.2564,4142.0513,4091.7949
4097.9487,4117.9487,4122.0513,4108.2051,4121.5385,4126.1538,4122.0513,4152.8205,4093.8462,4111.2821,4148.7179,4092.8205
4096.9231,4123.0769,4116.9231,4106.1538,4123.5897,4123.5897,4122.5641,4149.7436,4093.3333,4103.0769,4145.641,4087.1795
4097.4359,4115.8974,4111.2821,4097.4359,4127.1795,4123.0769,4121.0256,4146.6667,4092.8205,4099.4872,4143.0769,4093.3333
4109.2308,4116.9231,4116.9231,4099.4872,4121.0256,4124.1026,4122.0513,4149.2308,4094.8718,4102.5641,4147.6923,4108.7179
4136.9231,4124.1026,4126.6667,4110.7692,4119.4872,4124.1026,4122.5641,4147.6923,4098.4615,4106.1538,4156.4103,4120.5128
4174.359,4131.2821,4132.3077,4127.1795,4120,4124.1026,4117.9487,4141.0256,4104.1026,4118.4615,4166.6667,4141.5385
4218.4615,4138.4615,4144.1026,4135.8974,4128.7179,4123.5897,4111.2821,4140.5128,4109.7436,4134.8718,4180.5128,4180
4266.1538,4137.4359,4163.5897,4143.5897,4112.3077,4114.8718,4106.1538,4136.4103,4112.8205,4144.6154,4204.1026,4221.0256
4313.3333,4146.6667,4182.5641,4161.5385,4077.9487,4103.0769,4101.5385,4124.1026,4116.9231,4149.7436,4223.5897,4255.8974
4358.9744,4150.7692,4196.9231,4177.4359,4088.2051,4101.5385,4095.8974,4118.9744,4128.7179,4160.5128,4236.4103,4288.7179
4385.1282,4147.1795,4209.7436,4182.5641,4125.641,4105.641,4094.359,4121.5385,4140,4170.2564,4253.3333,4315.8974
4389.2308,4152.8205,4215.3846,4189.2308,4125.641,4104.1026,4098.9744,4122.5641,4143.5897,4174.359,4266.1538,4328.7179
4385.641,4148.2051,4208.7179,4190.2564,4103.5897,4100,4097.4359,4121.5385,4143.5897,4175.8974,4261.0256,4326.6667
4372.8205,4142.5641,4204.6154,4178.9744,4106.1538,4097.4359,4093.8462,4121.0256,4138.4615,4170.7692,4252.8205,4313.8462
4350.2564,4138.9744,4199.4872,4172.8205,4112.8205,4091.7949,4090.7692,4114.359,4125.641,4154.8718,4244.1026,4293.3333
4323.0769,4132.8205,4183.0769,4162.5641,4090.7692,4085.1282,4081.0256,4104.6154,4111.7949,4132.8205,4218.4615,4267.6923
4299.4872,4131.7949,4170.7692,4141.0256,4072.8205,4085.1282,4080.5128,4109.2308,4101.5385,4120,4200,4245.641
4275.3846,4121.0256,4164.1026,4135.8974,4087.1795,4085.641,4084.6154,4121.0256,4090.7692,4114.359,4200,4225.641
4253.3333,4120,4155.3846,4143.0769,4105.641,4082.0513,4078.4615,4123.0769,4087.6923,4108.7179,4190.2564,4204.1026
4241.5385,4127.6923,4147.6923,4134.8718,4110.7692,4082.5641,4080.5128,4121.5385,4092.8205,4105.641,4177.4359,4193.8462
4225.641,4121.0256,4144.6154,4111.2821,4104.1026,4084.1026,4089.2308,4119.4872,4090.7692,4107.6923,4175.8974,4188.7179
4194.359,4114.359,4135.8974,4090.7692,4071.2821,4077.4359,4082.5641,4113.3333,4078.9744,4107.6923,4162.0513,4168.2051
4171.2821,4110.7692,4124.6154,4078.9744,4052.3077,4076.4103,4076.4103,4110.2564,4073.3333,4100,4140.5128,4147.6923
4168.2051,4114.8718,4122.5641,4078.4615,4078.9744,4084.6154,4083.0769,4112.3077,4075.8974,4095.8974,4139.4872,4145.1282
4162.0513,4114.8718,4123.5897,4077.9487,4099.4872,4085.641,4081.0256,4109.2308,4072.3077,4095.3846,4144.1026,4140.5128
4146.6667,4109.2308,4114.359,4071.7949,4094.8718,4083.0769,4074.8718,4103.5897,4068.7179,4091.2821,4136.9231,4122.5641
4135.8974,4115.8974,4107.1795,4073.8462,4091.2821,4085.1282,4078.4615,4110.7692,4073.3333,4087.6923,4132.3077,4113.3333
4137.9487,4117.9487,4112.3077,4080.5128,4096.4103,4089.7436,4084.1026,4125.1282,4077.9487,4090.7692,4142.5641,4122.5641
4131.7949,4115.8974,4112.3077,4077.9487,4093.8462,4088.2051,4085.1282,4129.7436,4075.3846,4091.7949,4146.1538,4120
4111.2821,4115.8974,4098.9744,4071.7949,4080,4082.5641,4081.5385,4121.5385,4072.8205,4086.6667,4129.7436,4101.0256
4113.3333,4115.3846,4103.5897,4074.8718,4084.6154,4088.2051,4086.6667,4118.9744,4075.8974,4092.8205,4131.2821,4109.7436
4125.641,4121.0256,4115.3846,4074.8718,4090.2564,4094.8718,4095.8974,4124.6154,4074.8718,4100,4146.1538,4123.5897
4111.7949,4117.4359,4104.6154,4061.5385,4076.9231,4085.641,4090.2564,4124.1026,4062.0513,4089.7436,4135.3846,4105.1282
4095.8974,4113.3333,4093.8462,4051.2821,4082.5641,4077.9487,4078.9744,4121.0256,4055.8974,4083.5897,4120.5128,4091.2821
4103.5897,4119.4872,4105.1282,4058.9744,4104.6154,4088.2051,4086.6667,4122.0513,4063.0769,4096.9231,4131.2821,4101.5385
4107.1795,4116.9231,4115.3846,4073.8462,4095.8974,4100.5128,4098.9744,4127.1795,4064.6154,4105.1282,4132.8205,4101.0256
4090.2564,4117.4359,4104.1026,4075.3846,4070.7692,4103.0769,4100,4128.7179,4059.4872,4095.8974,4117.9487,4086.6667
4076.9231,4115.3846,4090.7692,4067.1795,4073.8462,4103.0769,4098.4615,4127.6923,4059.4872,4085.641,4121.0256,4084.1026
4078.9744,4113.3333,4089.7436,4066.6667,4096.9231,4101.0256,4099.4872,4128.2051,4059.4872,4084.1026,4126.1538,4085.1282
4084.1026,4119.4872,4091.7949,4075.8974,4112.3077,4105.1282,4103.5897,4133.3333,4057.4359,4089.2308,4123.0769,4080.5128
