"AF3","F7","F3","FC5","T7","P7","O1","O2","FC6","F4","F8","AF4"
4164.6154,4164.1026,4113.8462,4234.8718,4107.6923,4038.4615,4085.641,4144.1026,4156.9231,4135.8974,4157.4359,4151.7949
4128.2051,4148.2051,4086.1538,4201.5385,4111.2821,4122.0513,4103.0769,4116.9231,4127.1795,4107.6923,4122.0513,4119.4872
4141.0256,4162.0513,4092.8205,4217.4359,4160,4153.8462,4112.3077,4133.3333,4130.2564,4109.7436,4129.2308,4126.6667
4168.2051,4165.641,4116.9231,4243.5897,4157.4359,4083.0769,4104.1026,4165.1282,4155.8974,4137.4359,4162.0513,4153.8462
4140.5128,4153.3333,4101.5385,4221.0256,4121.0256,4093.3333,4098.9744,4144.6154,4141.0256,4128.7179,4142.5641,4132.8205
4121.5385,4147.1795,4088.7179,4205.1282,4131.7949,4152.8205,4106.6667,4130.2564,4127.6923,4116.9231,4119.4872,4113.3333
4137.4359,4157.4359,4107.1795,4218.4615,4147.6923,4131.7949,4115.8974,4154.359,4138.4615,4131.7949,4130.7692,4128.7179
4137.4359,4159.4872,4110.7692,4215.3846,4131.7949,4092.3077,4105.1282,4148.2051,4134.8718,4135.3846,4136.4103,4131.7949
4125.1282,4145.1282,4091.7949,4199.4872,4114.359,4110.2564,4089.2308,4121.0256,4120,4121.5385,4121.0256,4118.4615
4124.1026,4149.2308,4086.6667,4201.0256,4121.5385,4137.9487,4091.7949,4126.1538,4120,4117.9487,4114.8718,4114.359
4129.7436,4151.2821,4093.3333,4205.1282,4137.9487,4130.7692,4106.6667,4131.2821,4125.641,4125.641,4122.0513,4120
4129.2308,4144.6154,4095.8974,4196.9231,4142.0513,4107.6923,4106.6667,4121.0256,4128.7179,4127.6923,4125.641,4124.1026
4142.5641,4153.8462,4108.7179,4209.2308,4153.8462,4091.2821,4105.641,4141.5385,4148.2051,4140.5128,4141.5385,4136.9231
4159.4872,4155.3846,4123.0769,4235.3846,4149.2308,4092.8205,4114.8718,4161.5385,4163.5897,4159.4872,4161.5385,4151.2821
4148.2051,4147.1795,4121.5385,4233.3333,4126.1538,4104.6154,4112.8205,4138.9744,4150.7692,4152.3077,4153.8462,4141.0256
4132.8205,4143.5897,4116.4103,4213.8462,4143.0769,4110.2564,4104.6154,4124.1026,4136.4103,4135.3846,4135.8974,4123.0769
4137.4359,4148.2051,4115.8974,4206.1538,4169.7436,4090.2564,4102.0513,4136.4103,4140,4137.4359,4140.5128,4127.6923
4137.4359,4148.7179,4111.2821,4204.1026,4131.7949,4065.1282,4103.0769,4143.0769,4143.0769,4141.0256,4150.2564,4134.359
4118.4615,4133.3333,4097.9487,4193.8462,4102.0513,4088.7179,4107.6923,4136.9231,4131.2821,4123.5897,4139.4872,4114.359
4115.3846,4138.4615,4093.8462,4198.9744,4154.8718,4123.0769,4112.3077,4135.3846,4129.2308,4114.359,4132.8205,4105.641
4121.0256,4142.5641,4094.8718,4213.3333,4171.7949,4126.1538,4108.2051,4137.4359,4137.4359,4122.0513,4138.9744,4116.9231
4113.3333,4133.3333,4086.6667,4213.8462,4133.3333,4116.9231,4102.5641,4133.8462,4136.4103,4122.5641,4137.9487,4115.3846
4122.0513,4144.1026,4095.3846,4215.8974,4146.6667,4110.2564,4113.3333,4143.5897,4144.6154,4127.6923,4144.6154,4122.5641
4146.1538,4150.2564,4120.5128,4229.7436,4180,4092.8205,4122.0513,4160,4163.5897,4146.6667,4166.1538,4149.2308
4142.5641,4144.6154,4121.0256,4228.2051,4148.7179,4084.1026,4123.5897,4157.9487,4155.8974,4148.2051,4160.5128,4145.1282
4111.7949,4131.2821,4097.4359,4210.2564,4118.9744,4114.8718,4117.4359,4138.4615,4131.2821,4126.1538,4130.7692,4114.8718
4116.4103,4128.7179,4103.0769,4214.359,4159.4872,4131.7949,4109.2308,4134.8718,4137.4359,4124.6154,4134.8718,4119.4872
4138.9744,4142.0513,4126.1538,4230.7692,4166.6667,4110.2564,4110.7692,4145.1282,4155.8974,4140,4154.8718,4136.9231
4133.8462,4139.4872,4122.5641,4228.2051,4122.0513,4093.3333,4103.0769,4136.4103,4156.4103,4140.5128,4146.6667,4127.6923
4121.5385,4134.8718,4113.8462,4218.4615,4130.7692,4109.7436,4094.359,4119.4872,4149.7436,4132.8205,4137.9487,4115.8974
4128.2051,4136.4103,4123.0769,4223.0769,4162.0513,4105.1282,4105.641,4124.6154,4151.7949,4139.4872,4150.2564,4126.1538
4131.2821,4129.7436,4123.5897,4232.8205,4146.1538,4091.7949,4111.2821,4138.4615,4154.359,4143.5897,4151.7949,4132.3077
4127.6923,4134.359,4115.8974,4229.7436,4126.1538,4109.7436,4107.1795,4141.0256,4152.8205,4140.5128,4141.0256,4122.5641
4143.0769,4139.4872,4129.7436,4233.3333,4145.1282,4105.1282,4116.9231,4142.5641,4155.8974,4152.8205,4147.6923,4129.7436
4133.3333,4128.7179,4127.6923,4232.8205,4147.1795,4108.7179,4122.0513,4134.8718,4145.641,4145.641,4137.9487,4124.6154
4106.6667,4118.4615,4109.7436,4217.4359,4140,4135.8974,4114.359,4129.7436,4133.8462,4127.1795,4122.0513,4107.6923
4114.359,4118.9744,4114.359,4218.4615,4149.2308,4109.7436,4112.8205,4146.6667,4149.2308,4135.8974,4143.0769,4117.9487
4116.9231,4122.5641,4107.6923,4222.5641,4129.2308,4089.7436,4111.2821,4142.0513,4152.3077,4134.8718,4149.2308,4118.4615
4107.6923,4118.9744,4088.7179,4214.359,4118.4615,4129.7436,4110.2564,4123.5897,4140,4118.4615,4132.8205,4105.641
4126.1538,4126.6667,4103.0769,4229.2308,4160.5128,4118.4615,4125.1282,4147.6923,4158.9744,4132.8205,4145.1282,4122.5641
4138.9744,4130.7692,4113.3333,4248.7179,4175.8974,4083.0769,4125.641,4160.5128,4172.3077,4143.5897,4152.8205,4132.8205
4139.4872,4121.5385,4100,4251.2821,4147.1795,4122.5641,4108.7179,4135.3846,4160.5128,4135.8974,4144.6154,4127.6923
4172.3077,4132.3077,4118.9744,4258.4615,4153.3333,4135.8974,4113.3333,4142.5641,4178.9744,4156.9231,4171.7949,4163.5897
4193.3333,4133.3333,4142.0513,4254.8718,4174.359,4117.9487,4121.0256,4156.9231,4198.9744,4170.2564,4198.9744,4195.8974
4182.5641,4123.0769,4137.9487,4244.6154,4161.5385,4123.5897,4113.8462,4138.9744,4188.7179,4160.5128,4194.359,4186.6667
4178.9744,4127.1795,4133.8462,4254.359,4154.8718,4132.8205,4117.9487,4134.359,4189.2308,4161.5385,4193.8462,4181.0256
4179.4872,4123.5897,4137.4359,4252.8205,4145.1282,4127.1795,4122.0513,4141.5385,4202.0513,4163.5897,4196.4103,4186.1538
4176.4103,4121.5385,4149.2308,4247.1795,4121.5385,4094.359,4106.6667,4143.5897,4204.6154,4167.6923,4198.4615,4185.641
4171.2821,4120,4150.7692,4255.8974,4130.7692,4090.2564,4107.1795,4148.7179,4195.3846,4169.7436,4199.4872,4174.8718
4161.0256,4114.359,4137.4359,4251.7949,4152.3077,4129.7436,4129.7436,4153.8462,4186.6667,4155.8974,4188.2051,4163.0769
4165.1282,4121.0256,4143.5897,4249.2308,4149.7436,4118.4615,4123.5897,4160,4196.4103,4157.4359,4191.7949,4172.3077
4177.9487,4124.1026,4155.8974,4270.2564,4156.4103,4090.7692,4107.1795,4165.641,4208.2051,4172.8205,4210.2564,4184.1026
4167.6923,4120,4144.1026,4268.2051,4156.9231,4121.5385,4115.3846,4155.3846,4192.8205,4162.5641,4199.4872,4171.7949
4155.8974,4113.8462,4131.7949,4247.6923,4143.5897,4140,4117.4359,4148.2051,4180,4150.2564,4181.5385,4164.6154
4161.0256,4116.4103,4126.6667,4253.8462,4145.641,4132.3077,4105.641,4152.8205,4187.1795,4153.8462,4186.1538,4168.7179
4169.7436,4131.7949,4126.1538,4275.3846,4160,4124.6154,4112.8205,4161.0256,4201.0256,4162.0513,4201.0256,4173.3333
4175.3846,4132.8205,4142.0513,4285.1282,4169.2308,4082.0513,4129.7436,4177.4359,4214.359,4178.4615,4213.8462,4185.1282
4159.4872,4117.4359,4136.9231,4274.359,4152.8205,4075.3846,4118.9744,4169.7436,4201.0256,4170.7692,4196.4103,4169.7436
4138.9744,4107.1795,4115.8974,4257.9487,4130.7692,4137.4359,4107.1795,4147.1795,4180.5128,4141.5385,4175.3846,4144.6154
4152.3077,4116.9231,4132.3077,4262.0513,4142.5641,4142.0513,4122.5641,4158.4615,4197.4359,4148.2051,4204.6154,4163.5897
4164.1026,4124.6154,4147.1795,4265.641,4165.1282,4107.1795,4131.7949,4166.6667,4209.7436,4164.1026,4226.6667,4181.0256
4129.2308,4102.0513,4113.3333,4237.4359,4135.3846,4155.8974,4113.3333,4138.9744,4183.5897,4138.9744,4186.1538,4146.1538
4115.3846,4106.6667,4105.1282,4228.2051,4108.7179,4184.1026,4105.641,4132.8205,4178.9744,4130.7692,4168.7179,4133.3333
4164.6154,4137.4359,4148.7179,4268.7179,4143.0769,4102.0513,4116.9231,4160,4207.6923,4170.7692,4211.7949,4178.4615
4175.8974,4125.641,4152.8205,4286.6667,4160,4056.9231,4109.2308,4151.2821,4202.0513,4176.4103,4210.2564,4186.6667
4137.4359,4106.1538,4120.5128,4260.5128,4145.1282,4097.4359,4096.4103,4126.1538,4180.5128,4142.0513,4168.7179,4151.2821
4128.7179,4105.641,4115.3846,4239.4872,4134.359,4120.5128,4098.9744,4124.6154,4180.5128,4130.7692,4164.6154,4144.6154
4142.5641,4108.2051,4127.6923,4243.0769,4135.3846,4117.4359,4108.2051,4127.6923,4187.6923,4143.5897,4178.9744,4155.3846
4144.6154,4107.1795,4127.6923,4250.7692,4141.5385,4123.5897,4115.8974,4136.9231,4192.8205,4152.3077,4178.9744,4152.3077
4143.5897,4104.6154,4130.7692,4252.8205,4145.641,4111.7949,4117.9487,4152.3077,4197.9487,4154.359,4184.1026,4154.359
4148.2051,4110.7692,4145.1282,4260,4152.8205,4069.2308,4111.7949,4162.0513,4203.5897,4161.0256,4198.4615,4167.6923
4133.3333,4102.0513,4129.2308,4243.5897,4163.0769,4094.359,4107.1795,4149.7436,4192.3077,4148.7179,4183.5897,4151.7949
4122.5641,4098.9744,4110.7692,4221.5385,4159.4872,4149.7436,4114.8718,4141.0256,4181.0256,4134.8718,4165.641,4130.7692
4141.5385,4112.3077,4136.4103,4246.6667,4136.4103,4098.4615,4117.4359,4148.2051,4193.3333,4151.2821,4185.641,4150.2564
4154.359,4111.7949,4155.8974,4280.5128,4132.3077,4041.0256,4107.1795,4145.1282,4202.5641,4165.1282,4203.0769,4172.8205
4137.9487,4104.6154,4128.7179,4264.1026,4132.3077,4094.359,4098.4615,4124.6154,4186.1538,4145.1282,4180.5128,4151.7949
4129.7436,4103.0769,4117.4359,4237.4359,4130.7692,4113.3333,4097.9487,4118.9744,4174.8718,4135.8974,4163.5897,4133.8462
4142.5641,4113.3333,4143.0769,4247.1795,4152.3077,4063.0769,4105.641,4138.9744,4187.1795,4159.4872,4181.5385,4152.3077
4144.6154,4118.9744,4141.0256,4258.9744,4164.6154,4083.0769,4113.8462,4143.0769,4188.7179,4162.5641,4187.1795,4157.9487
4150.2564,4116.4103,4130.2564,4263.5897,4161.5385,4103.0769,4112.3077,4136.4103,4184.6154,4154.359,4183.5897,4153.8462
4151.7949,4113.8462,4140.5128,4260.5128,4148.7179,4071.2821,4104.1026,4136.9231,4186.6667,4155.3846,4179.4872,4150.7692
4132.3077,4101.5385,4140.5128,4242.5641,4143.5897,4084.6154,4110.7692,4141.5385,4183.5897,4149.2308,4169.2308,4140
4115.8974,4094.8718,4120.5128,4223.0769,4143.5897,4149.2308,4122.5641,4134.8718,4168.2051,4126.6667,4148.7179,4121.0256
4121.0256,4107.6923,4116.4103,4228.2051,4135.8974,4163.0769,4114.359,4117.4359,4160.5128,4118.9744,4141.0256,4116.9231
4158.4615,4121.5385,4149.2308,4259.4872,4148.7179,4087.1795,4104.1026,4136.4103,4188.7179,4152.3077,4173.8462,4154.359
4175.8974,4124.6154,4166.6667,4272.3077,4157.9487,4038.9744,4108.7179,4157.4359,4211.2821,4172.3077,4195.8974,4175.3846
4139.4872,4108.7179,4137.9487,4254.359,4133.3333,4091.2821,4110.2564,4132.8205,4186.1538,4145.641,4170.2564,4146.1538
4123.0769,4102.5641,4124.1026,4246.6667,4138.4615,4135.3846,4107.6923,4113.8462,4167.6923,4135.3846,4155.3846,4130.7692
4143.0769,4116.4103,4137.4359,4252.8205,4172.8205,4121.0256,4108.7179,4126.1538,4180.5128,4153.3333,4166.1538,4144.1026
4130.2564,4107.1795,4128.2051,4244.1026,4132.3077,4111.7949,4103.5897,4120.5128,4176.9231,4144.6154,4153.8462,4136.4103
4115.8974,4103.0769,4123.0769,4242.5641,4104.1026,4094.8718,4109.7436,4121.5385,4172.3077,4140,4152.3077,4134.8718
4136.9231,4115.8974,4134.8718,4253.3333,4171.2821,4091.2821,4121.5385,4139.4872,4186.6667,4156.9231,4174.359,4149.2308
4132.8205,4109.2308,4118.9744,4245.1282,4181.5385,4128.7179,4110.7692,4122.5641,4176.9231,4141.5385,4159.4872,4130.7692
4104.1026,4101.5385,4097.9487,4226.1538,4109.7436,4137.9487,4100,4103.5897,4151.2821,4111.7949,4125.1282,4103.0769
4113.8462,4107.6923,4114.359,4230.7692,4110.7692,4103.5897,4108.2051,4127.1795,4160.5128,4123.5897,4136.4103,4116.4103
4148.2051,4121.5385,4143.5897,4257.9487,4171.2821,4078.4615,4119.4872,4155.3846,4191.7949,4154.8718,4175.8974,4149.2308
4143.5897,4116.4103,4136.4103,4259.4872,4168.2051,4100,4115.8974,4142.0513,4187.6923,4149.2308,4174.8718,4144.6154
4127.6923,4105.1282,4121.0256,4251.7949,4148.2051,4126.6667,4105.641,4124.1026,4168.2051,4130.7692,4157.4359,4129.7436
4138.9744,4113.3333,4128.2051,4264.6154,4155.3846,4108.7179,4104.6154,4136.4103,4168.7179,4134.359,4165.1282,4141.5385
4152.3077,4115.8974,4135.3846,4269.7436,4142.5641,4086.6667,4113.8462,4144.6154,4177.4359,4146.1538,4181.0256,4155.3846
4140,4108.2051,4122.0513,4252.3077,4122.5641,4113.3333,4112.3077,4115.3846,4170.2564,4136.4103,4167.6923,4142.0513
4132.8205,4108.2051,4117.4359,4243.5897,4142.5641,4134.8718,4104.1026,4105.641,4166.6667,4126.6667,4155.3846,4133.8462
4146.6667,4108.7179,4125.641,4252.3077,4162.0513,4113.3333,4106.6667,4135.3846,4176.9231,4135.3846,4169.7436,4147.6923
4131.2821,4101.5385,4107.1795,4245.1282,4137.9487,4129.7436,4108.7179,4129.7436,4164.6154,4123.0769,4159.4872,4134.359
4125.1282,4099.4872,4105.1282,4243.5897,4132.8205,4138.9744,4107.6923,4118.4615,4159.4872,4117.4359,4149.2308,4125.641
4154.8718,4110.7692,4136.9231,4264.1026,4163.5897,4087.6923,4112.3077,4144.1026,4185.1282,4148.2051,4176.4103,4156.4103
4169.2308,4115.3846,4149.7436,4272.8205,4166.6667,4065.641,4117.4359,4156.9231,4195.8974,4163.0769,4196.4103,4175.8974
4154.359,4104.6154,4134.8718,4261.5385,4141.0256,4112.3077,4121.0256,4141.0256,4175.3846,4140,4176.9231,4156.9231
4146.6667,4106.1538,4130.7692,4253.3333,4148.2051,4150.7692,4130.7692,4132.3077,4167.6923,4130.7692,4159.4872,4141.5385
4162.0513,4114.8718,4150.2564,4268.2051,4177.4359,4121.5385,4139.4872,4147.6923,4195.3846,4158.4615,4185.641,4162.5641
4161.0256,4109.7436,4148.2051,4272.8205,4167.1795,4111.7949,4137.4359,4151.2821,4202.0513,4162.0513,4195.3846,4166.1538
4141.0256,4103.5897,4123.5897,4254.8718,4149.7436,4156.9231,4128.7179,4135.8974,4175.8974,4135.8974,4161.0256,4138.4615
4132.8205,4100.5128,4119.4872,4254.359,4140.5128,4149.7436,4115.8974,4125.641,4168.7179,4133.8462,4142.0513,4133.8462
4139.4872,4107.1795,4129.2308,4265.641,4110.7692,4084.6154,4104.6154,4130.7692,4181.0256,4151.2821,4156.4103,4149.2308
4142.5641,4106.1538,4124.1026,4257.9487,4126.1538,4087.1795,4107.6923,4136.9231,4177.9487,4146.6667,4161.5385,4146.1538
4137.4359,4102.5641,4118.4615,4256.9231,4169.2308,4127.6923,4122.5641,4136.4103,4170.7692,4135.3846,4151.7949,4136.9231
4129.7436,4109.7436,4126.6667,4267.6923,4145.641,4112.3077,4126.6667,4140,4174.8718,4142.5641,4153.8462,4141.0256
4120.5128,4108.2051,4124.6154,4254.359,4118.4615,4102.0513,4120.5128,4137.9487,4173.3333,4143.5897,4157.9487,4141.5385
4128.2051,4112.3077,4123.0769,4248.7179,4158.4615,4108.2051,4122.0513,4138.4615,4174.8718,4139.4872,4160,4145.1282
4132.3077,4115.3846,4125.641,4262.0513,4179.4872,4104.6154,4134.359,4142.5641,4177.4359,4139.4872,4160.5128,4147.1795
4115.8974,4106.1538,4115.8974,4248.2051,4152.8205,4122.5641,4135.3846,4138.4615,4166.1538,4128.2051,4148.7179,4132.8205
4113.8462,4106.6667,4111.7949,4233.8462,4143.5897,4126.1538,4124.6154,4136.4103,4165.641,4124.1026,4144.1026,4131.7949
4119.4872,4105.1282,4111.7949,4233.8462,4147.1795,4125.1282,4127.6923,4134.359,4169.7436,4128.2051,4148.2051,4136.9231
4094.359,4096.4103,4093.3333,4221.0256,4136.4103,4177.4359,4130.2564,4121.5385,4150.2564,4109.7436,4132.3077,4110.7692
4082.5641,4096.4103,4088.7179,4219.4872,4124.1026,4178.4615,4113.3333,4113.8462,4146.6667,4098.9744,4125.641,4098.9744
4140.5128,4116.9231,4138.4615,4257.4359,4154.8718,4066.1538,4110.2564,4140.5128,4194.8718,4146.1538,4177.9487,4155.8974
4186.1538,4133.3333,4173.8462,4285.641,4207.6923,4032.3077,4129.7436,4164.1026,4229.2308,4182.0513,4217.4359,4196.4103
4150.2564,4114.8718,4140,4265.1282,4198.9744,4119.4872,4122.5641,4137.4359,4195.3846,4145.641,4180,4161.5385
4127.6923,4110.7692,4123.5897,4248.2051,4153.8462,4111.7949,4101.5385,4116.4103,4169.2308,4125.641,4158.4615,4143.0769
4137.4359,4114.8718,4133.8462,4246.1538,4145.641,4093.3333,4110.7692,4120,4172.3077,4134.359,4163.0769,4149.2308
4127.1795,4099.4872,4121.5385,4241.5385,4161.0256,4165.641,4121.0256,4112.8205,4168.2051,4120.5128,4146.1538,4134.359
4137.9487,4109.2308,4130.2564,4249.7436,4155.3846,4129.2308,4112.3077,4121.0256,4178.4615,4130.2564,4161.0256,4151.2821
4164.1026,4123.0769,4154.8718,4253.8462,4150.7692,4043.0769,4111.2821,4143.0769,4194.359,4160.5128,4193.8462,4182.5641
4151.2821,4110.7692,4148.2051,4245.1282,4167.1795,4086.1538,4119.4872,4140.5128,4186.6667,4152.8205,4183.5897,4169.7436
4142.0513,4107.6923,4136.9231,4248.2051,4183.5897,4132.3077,4124.1026,4133.3333,4181.0256,4141.5385,4174.8718,4155.8974
4162.5641,4118.4615,4145.641,4266.1538,4180.5128,4093.3333,4125.641,4142.0513,4193.8462,4157.4359,4195.8974,4172.3077
4157.4359,4118.4615,4143.0769,4262.0513,4159.4872,4084.1026,4118.9744,4144.1026,4194.359,4157.9487,4189.7436,4171.2821
4137.9487,4110.2564,4132.3077,4243.5897,4152.8205,4108.2051,4110.2564,4133.3333,4181.5385,4144.6154,4165.641,4153.3333
4143.5897,4114.8718,4138.4615,4242.0513,4155.3846,4098.4615,4117.4359,4125.1282,4175.3846,4144.1026,4166.6667,4153.8462
4136.4103,4114.8718,4132.8205,4232.3077,4138.9744,4117.4359,4124.6154,4121.5385,4164.1026,4134.359,4158.4615,4147.6923
4125.1282,4107.1795,4125.1282,4222.5641,4125.1282,4136.4103,4115.3846,4125.1282,4157.4359,4126.1538,4144.1026,4138.9744
4147.1795,4122.0513,4142.5641,4243.5897,4153.3333,4105.1282,4116.9231,4130.7692,4167.1795,4143.5897,4158.4615,4156.4103
4172.3077,4131.2821,4161.5385,4270.2564,4172.3077,4072.8205,4132.8205,4132.3077,4178.4615,4162.0513,4177.4359,4177.9487
4146.1538,4111.2821,4142.5641,4255.3846,4126.6667,4088.7179,4126.1538,4123.5897,4164.6154,4145.1282,4153.3333,4155.3846
4116.4103,4105.1282,4117.9487,4228.2051,4118.9744,4115.3846,4113.3333,4114.8718,4152.3077,4126.1538,4127.1795,4129.7436
4131.2821,4111.7949,4126.1538,4229.7436,4164.6154,4126.1538,4130.2564,4126.6667,4161.0256,4136.9231,4140.5128,4144.6154
4136.4103,4113.8462,4134.359,4231.7949,4173.3333,4143.5897,4140.5128,4138.4615,4160,4141.0256,4144.1026,4148.7179
4127.6923,4115.3846,4129.7436,4234.359,4148.2051,4126.1538,4119.4872,4134.359,4154.8718,4136.9231,4136.4103,4138.4615
4131.2821,4116.4103,4122.5641,4244.1026,4124.1026,4097.4359,4111.7949,4121.0256,4151.2821,4133.8462,4135.8974,4136.4103
4134.8718,4120,4122.5641,4247.1795,4132.3077,4098.4615,4126.1538,4117.4359,4145.1282,4128.7179,4136.9231,4140
4133.8462,4117.4359,4127.6923,4244.1026,4168.2051,4103.5897,4125.1282,4122.0513,4145.641,4128.2051,4136.9231,4141.5385
4117.4359,4113.8462,4114.359,4233.8462,4162.0513,4125.1282,4116.9231,4110.7692,4142.0513,4119.4872,4124.1026,4126.1538
4105.1282,4115.3846,4098.9744,4227.1795,4122.0513,4132.3077,4112.3077,4103.0769,4135.8974,4112.3077,4116.4103,4113.3333
4120.5128,4121.0256,4109.7436,4236.4103,4125.641,4102.0513,4105.1282,4117.4359,4145.641,4127.1795,4134.8718,4130.2564
4140,4125.641,4125.641,4248.2051,4145.1282,4089.7436,4111.7949,4128.2051,4164.6154,4149.7436,4153.8462,4152.8205
4142.5641,4122.0513,4128.2051,4252.8205,4154.359,4110.2564,4123.0769,4127.1795,4168.2051,4153.8462,4159.4872,4156.9231
4134.8718,4122.0513,4116.4103,4249.7436,4170.7692,4116.4103,4121.0256,4123.5897,4157.4359,4137.4359,4151.7949,4144.1026
4126.6667,4118.9744,4100,4234.8718,4164.6154,4116.9231,4116.4103,4118.9744,4147.1795,4122.0513,4137.9487,4128.7179
4123.5897,4112.3077,4098.9744,4227.1795,4144.1026,4125.641,4116.9231,4115.3846,4151.2821,4119.4872,4137.9487,4128.2051
4122.0513,4114.8718,4109.7436,4238.9744,4126.6667,4123.0769,4122.5641,4121.5385,4162.5641,4124.6154,4130.7692,4130.2564
4120.5128,4110.2564,4114.359,4244.6154,4127.6923,4122.5641,4125.641,4137.9487,4157.9487,4127.1795,4126.1538,4134.8718
4128.2051,4108.7179,4115.3846,4238.4615,4157.4359,4126.6667,4122.0513,4143.0769,4166.1538,4138.4615,4124.1026,4122.0513
4137.4359,4113.8462,4120.5128,4237.9487,4158.4615,4126.1538,4121.5385,4130.2564,4189.7436,4157.4359,4102.0513,4097.4359
4146.1538,4113.8462,4125.1282,4244.6154,4129.7436,4126.6667,4119.4872,4124.6154,4176.4103,4151.7949,4111.2821,4124.6154
4155.8974,4124.1026,4128.7179,4253.8462,4138.9744,4126.1538,4105.641,4129.2308,4181.5385,4155.3846,4091.7949,4134.8718
4194.8718,4137.4359,4137.9487,4271.2821,4161.5385,4116.4103,4092.3077,4118.4615,4211.2821,4176.4103,4047.1795,4101.5385
4288.7179,4140,4155.8974,4313.3333,4171.2821,4106.6667,4092.8205,4106.1538,4160.5128,4145.641,4140,4145.641
4402.0513,4162.5641,4177.4359,4374.359,4188.2051,4106.1538,4097.9487,4112.8205,4114.359,4117.4359,4264.6154,4184.1026
4439.4872,4226.6667,4176.4103,4428.2051,4215.8974,4099.4872,4094.359,4109.7436,4194.8718,4158.4615,4224.6154,4057.9487
4478.4615,4329.2308,4154.359,4508.7179,4274.359,4088.2051,4089.2308,4094.8718,4233.8462,4186.1538,4251.2821,3950.7692
4710.7692,4456.4103,4142.5641,4674.8718,4337.9487,4081.5385,4085.641,4094.8718,4144.1026,4145.1282,4485.641,4006.1538
5045.1282,4598.9744,4145.641,4899.4872,4371.7949,4061.0256,4079.4872,4098.9744,4144.1026,4139.4872,4598.9744,3962.5641
5342.5641,4760.5128,4121.5385,5053.3333,4395.3846,4028.7179,4059.4872,4078.4615,4194.8718,4171.2821,4577.4359,3714.359
5651.2821,4932.3077,4050.7692,5154.359,4400.5128,4006.1538,4028.7179,4044.1026,4109.7436,4121.5385,4693.8462,3530.2564
5881.0256,5045.1282,3982.0513,5420,4370.2564,3966.1538,3996.4103,4017.9487,4033.3333,4027.1795,4862.0513,3509.2308
5923.5897,5054.8718,3954.8718,5813.8462,4372.8205,3921.0256,3981.5385,4006.6667,4015.3846,3980.5128,4964.1026,3466.6667
5923.5897,5054.359,3948.2051,6044.1026,4414.8718,3936.4103,3994.8718,4014.8718,3966.6667,3997.4359,5044.6154,3312.3077
5963.0769,5094.359,3940.5128,6089.2308,4428.7179,3984.1026,4008.7179,4032.8205,3932.8205,4035.8974,5098.4615,3183.5897
5950.7692,5102.5641,3931.2821,6134.8718,4447.1795,3985.1282,4010.7692,4049.7436,3872.3077,4026.1538,5200,3173.8462
5911.2821,5099.4872,3924.1026,6170.7692,4480.5128,3959.4872,4022.5641,4070.2564,3789.7436,3983.0769,5381.0256,3176.9231
5872.8205,5092.3077,3915.3846,6137.4359,4486.6667,3969.7436,4044.6154,4102.5641,3818.9744,3994.359,5495.8974,3104.6154
5829.7436,5039.4872,3917.9487,6097.9487,4510.7692,4003.5897,4068.2051,4147.6923,3861.0256,4052.3077,5552.3077,2998.9744
5801.5385,4992.8205,3938.9744,6071.2821,4556.9231,4036.4103,4100,4192.3077,3797.9487,4057.9487,5668.7179,2935.8974
5745.641,4971.2821,3960.5128,6001.0256,4551.7949,4067.6923,4119.4872,4216.4103,3851.7949,4032.3077,5705.1282,2918.9744
5702.5641,4927.6923,3985.1282,5893.3333,4533.3333,4087.6923,4123.0769,4238.4615,4010.2564,4043.5897,5654.8718,2940.5128
5722.5641,4844.1026,4009.2308,5829.2308,4574.359,4091.7949,4138.9744,4275.8974,4024.6154,4064.6154,5736.9231,3012.3077
5689.2308,4754.359,4017.4359,5796.4103,4611.2821,4093.3333,4154.8718,4291.7949,4036.9231,4066.1538,5855.3846,3055.3846
5602.0513,4707.1795,4010.2564,5724.6154,4602.0513,4093.8462,4149.2308,4281.0256,4242.0513,4035.8974,5882.5641,3073.3333
5567.1795,4692.8205,3992.8205,5652.3077,4591.2821,4094.359,4126.1538,4273.3333,4431.2821,4002.0513,5933.3333,3113.8462
5525.1282,4687.6923,3987.6923,5624.6154,4599.4872,4101.0256,4097.9487,4275.8974,4404.6154,4003.0769,6030.2564,3126.6667
5446.6667,4670.2564,4005.641,5605.1282,4629.7436,4109.2308,4081.5385,4279.4872,4380,4028.2051,6067.6923,3077.4359
5414.8718,4625.1282,4013.8462,5560,4632.8205,4111.2821,4080.5128,4273.8462,4482.5641,4041.0256,6071.7949,3034.359
5403.0769,4574.8718,4002.5641,5500.5128,4584.6154,4113.3333,4078.4615,4255.8974,4494.359,4032.8205,6112.3077,3046.6667
5351.2821,4535.8974,4008.7179,5450.7692,4568.7179,4129.7436,4076.4103,4246.6667,4412.8205,4049.2308,6098.4615,3061.0256
5293.8462,4512.3077,4023.5897,5411.2821,4590.2564,4154.359,4095.3846,4246.1538,4368.2051,4079.4872,6031.7949,3075.3846
5252.8205,4485.1282,4025.1282,5347.6923,4575.8974,4154.359,4109.2308,4234.359,4326.1538,4082.5641,5984.1026,3109.2308
5232.3077,4448.7179,4030.7692,5281.5385,4537.9487,4136.9231,4098.4615,4222.5641,4261.5385,4073.3333,5956.4103,3146.6667
5213.3333,4431.7949,4040.5128,5238.9744,4519.4872,4138.4615,4096.4103,4225.641,4241.0256,4097.9487,5901.5385,3171.2821
5169.7436,4417.4359,4047.6923,5152.3077,4504.1026,4153.8462,4113.8462,4234.8718,4232.8205,4137.4359,5820.5128,3171.7949
5125.1282,4394.8718,4058.4615,5019.4872,4489.2308,4164.1026,4124.1026,4230.7692,4188.2051,4144.1026,5767.1795,3147.1795
5106.6667,4376.4103,4067.1795,4934.8718,4487.6923,4176.4103,4116.9231,4219.4872,4127.6923,4128.7179,5755.3846,3155.8974
5094.359,4361.0256,4064.6154,4909.7436,4482.5641,4186.6667,4116.4103,4220,4074.8718,4113.3333,5718.9744,3233.3333
5060.5128,4355.3846,4060,4885.1282,4476.9231,4189.7436,4124.1026,4228.2051,4058.9744,4111.2821,5632.3077,3289.7436
5007.6923,4336.9231,4062.0513,4845.641,4471.2821,4199.4872,4124.6154,4218.4615,4063.5897,4122.0513,5549.2308,3270.7692
4969.2308,4317.9487,4069.7436,4817.9487,4460.5128,4213.8462,4129.7436,4205.641,4063.0769,4138.4615,5482.0513,3251.2821
4982.0513,4320,4080,4798.4615,4440.5128,4213.3333,4138.9744,4217.9487,4060.5128,4142.0513,5453.3333,3300.5128
5014.359,4315.8974,4088.2051,4754.8718,4414.359,4207.1795,4136.4103,4223.5897,4066.6667,4129.7436,5441.0256,3357.4359
4988.7179,4309.7436,4090.2564,4679.4872,4397.4359,4216.9231,4134.359,4208.2051,4071.7949,4124.6154,5357.9487,3343.0769
4947.1795,4306.1538,4093.8462,4623.5897,4403.5897,4231.2821,4143.5897,4206.6667,4080,4132.8205,5261.0256,3328.7179
4952.8205,4291.7949,4105.641,4601.0256,4411.2821,4233.8462,4145.641,4219.4872,4109.2308,4144.1026,5212.3077,3384.1026
4952.8205,4280.5128,4106.1538,4578.9744,4397.9487,4236.9231,4145.1282,4218.4615,4119.4872,4135.3846,5168.2051,3430.2564
4934.359,4281.5385,4102.0513,4565.641,4402.5641,4250.2564,4155.8974,4219.4872,4117.4359,4134.8718,5116.9231,3415.3846
4945.641,4284.1026,4110.7692,4562.0513,4410.2564,4257.9487,4165.1282,4233.8462,4140,4154.359,5101.5385,3420.5128
4933.3333,4272.8205,4110.2564,4519.4872,4390.7692,4262.0513,4159.4872,4228.7179,4164.6154,4151.7949,5092.8205,3462.5641
4877.9487,4260.5128,4105.641,4452.3077,4371.2821,4265.1282,4153.8462,4208.2051,4177.9487,4146.6667,5050.2564,3475.3846
4865.1282,4258.4615,4118.9744,4399.4872,4344.6154,4260,4157.9487,4203.5897,4185.641,4152.8205,5016.9231,3475.3846
4872.3077,4249.2308,4125.1282,4317.4359,4313.8462,4262.0513,4165.641,4212.8205,4184.6154,4142.0513,5005.641,3490.2564
4833.8462,4245.641,4115.8974,4214.359,4315.3846,4279.4872,4178.9744,4218.9744,4191.7949,4126.6667,4966.6667,3488.2051
4813.8462,4248.2051,4130.2564,4182.5641,4333.3333,4292.3077,4187.1795,4217.9487,4215.3846,4135.8974,4905.641,3500
4844.6154,4246.6667,4155.8974,4198.9744,4323.5897,4291.7949,4178.9744,4213.8462,4220.5128,4144.6154,4874.8718,3555.8974
4837.4359,4247.6923,4158.9744,4185.1282,4311.7949,4293.8462,4176.4103,4212.3077,4225.1282,4145.1282,4835.3846,3571.7949
4811.7949,4248.2051,4161.5385,4173.8462,4328.7179,4305.641,4190.2564,4216.4103,4249.2308,4163.0769,4780,3563.0769
4848.7179,4256.4103,4173.3333,4187.6923,4346.1538,4312.3077,4200,4226.6667,4244.1026,4169.2308,4794.8718,3627.1795
4877.4359,4258.4615,4171.7949,4168.2051,4345.1282,4309.2308,4200.5128,4233.3333,4217.9487,4155.8974,4836.4103,3693.3333
4828.7179,4238.4615,4162.5641,4118.9744,4331.7949,4316.9231,4201.5385,4223.5897,4229.2308,4156.4103,4795.8974,3675.8974
4776.9231,4227.1795,4168.2051,4089.2308,4311.2821,4325.1282,4205.641,4215.3846,4266.1538,4175.8974,4712.8205,3642.5641
4772.8205,4223.5897,4181.5385,4080,4300.5128,4320.5128,4210.2564,4228.2051,4261.0256,4176.9231,4702.0513,3678.9744
4766.1538,4217.9487,4184.6154,4054.8718,4307.1795,4317.4359,4211.2821,4239.4872,4224.1026,4145.641,4743.0769,3732.3077
4728.2051,4214.359,4182.5641,4010.7692,4317.9487,4324.6154,4209.2308,4234.8718,4236.4103,4139.4872,4705.1282,3709.7436
4685.1282,4211.7949,4187.6923,3984.6154,4314.359,4332.3077,4210.2564,4234.8718,4263.0769,4156.4103,4631.2821,3682.5641
4670.2564,4215.8974,4203.0769,3976.9231,4298.4615,4333.8462,4213.8462,4245.641,4250.7692,4160,4624.1026,3714.359
4669.7436,4211.7949,4217.4359,3956.4103,4303.5897,4337.9487,4220,4247.6923,4245.641,4161.0256,4629.7436,3733.3333
4648.2051,4207.6923,4227.6923,3937.9487,4330.2564,4346.1538,4228.2051,4242.5641,4274.8718,4163.0769,4606.1538,3740
4636.4103,4209.2308,4235.3846,3944.6154,4341.5385,4351.2821,4226.1538,4245.1282,4307.1795,4158.9744,4588.7179,3777.4359
4635.8974,4200.5128,4231.7949,3940.5128,4328.2051,4342.5641,4214.359,4247.1795,4330.7692,4165.641,4552.8205,3761.5385
4605.641,4198.4615,4232.3077,3920,4318.9744,4331.7949,4216.4103,4243.5897,4351.2821,4189.2308,4490.2564,3724.1026
4581.5385,4204.6154,4245.1282,3935.8974,4321.5385,4337.9487,4228.2051,4239.4872,4333.3333,4177.9487,4489.2308,3777.4359
4594.8718,4205.1282,4243.5897,3975.3846,4318.9744,4329.2308,4222.0513,4232.3077,4293.3333,4131.2821,4529.2308,3826.1538
4604.1026,4201.0256,4230.7692,3968.7179,4323.5897,4299.4872,4214.359,4227.1795,4281.0256,4105.641,4531.7949,3824.1026
4578.4615,4192.3077,4236.9231,3944.1026,4330.2564,4289.2308,4228.2051,4231.2821,4291.2821,4116.9231,4507.1795,3829.7436
4534.359,4199.4872,4250.2564,3945.1282,4329.7436,4295.3846,4235.8974,4236.4103,4297.4359,4134.359,4466.1538,3813.3333
4507.1795,4202.0513,4241.5385,3893.3333,4317.4359,4287.6923,4220,4231.2821,4280,4129.7436,4439.4872,3806.6667
4512.3077,4185.641,4232.3077,3791.7949,4302.0513,4278.4615,4211.2821,4220.5128,4248.7179,4113.8462,4461.0256,3862.0513
4512.3077,4183.5897,4238.4615,3756.9231,4311.2821,4285.1282,4220,4222.5641,4230.2564,4105.641,4488.2051,3904.1026
4478.9744,4188.7179,4241.0256,3770.7692,4324.1026,4286.1538,4221.0256,4230.7692,4262.0513,4122.0513,4439.4872,3872.3077
4464.6154,4184.6154,4239.4872,3756.9231,4309.2308,4278.4615,4214.8718,4226.1538,4285.641,4138.9744,4381.0256,3863.5897
4477.4359,4176.4103,4237.9487,3750.2564,4285.641,4276.4103,4212.3077,4218.4615,4252.3077,4120.5128,4402.0513,3914.359
4462.0513,4179.4872,4237.4359,3773.8462,4293.8462,4277.9487,4210.7692,4227.1795,4266.6667,4115.8974,4384.1026,3914.8718
4437.9487,4188.2051,4245.1282,3782.0513,4310.7692,4275.8974,4210.7692,4232.3077,4335.8974,4140,4313.8462,3884.1026
4455.3846,4186.6667,4258.9744,3793.3333,4303.5897,4274.8718,4212.3077,4224.1026,4354.359,4140.5128,4324.6154,3925.641
4464.6154,4186.6667,4264.6154,3816.4103,4308.7179,4284.6154,4215.8974,4229.7436,4345.1282,4128.7179,4355.8974,3982.0513
4429.2308,4182.5641,4263.0769,3808.7179,4333.3333,4297.4359,4224.6154,4233.8462,4362.0513,4135.3846,4310.2564,3971.7949
4413.3333,4172.8205,4265.641,3780.5128,4327.1795,4299.4872,4232.3077,4217.9487,4365.1282,4136.4103,4284.1026,3974.8718
4422.0513,4174.8718,4266.1538,3765.1282,4294.359,4295.3846,4229.2308,4217.9487,4351.7949,4126.6667,4311.7949,4014.8718
4400,4173.8462,4260.5128,3754.8718,4278.9744,4292.8205,4218.4615,4233.3333,4363.0769,4122.0513,4291.7949,4015.3846
4368.2051,4168.7179,4258.9744,3743.0769,4274.8718,4287.1795,4213.8462,4231.7949,4383.0769,4119.4872,4247.6923,4001.0256
4371.7949,4166.1538,4271.7949,3743.0769,4272.3077,4286.1538,4218.9744,4230.2564,4394.359,4136.4103,4244.6154,4019.4872
4372.8205,4162.0513,4280,3744.1026,4275.8974,4289.2308,4218.9744,4234.359,4394.359,4151.2821,4240.5128,4037.4359
4343.5897,4169.7436,4275.8974,3747.6923,4272.3077,4288.2051,4216.4103,4227.6923,4386.6667,4143.0769,4208.2051,4025.1282
4336.4103,4168.7179,4274.359,3760.5128,4271.2821,4292.3077,4220,4222.0513,4383.0769,4144.1026,4197.9487,4036.4103
4360,4164.1026,4279.4872,3774.359,4276.9231,4298.4615,4222.0513,4220.5128,4383.0769,4152.8205,4206.1538,4085.1282
4364.1026,4172.3077,4284.1026,3787.1795,4284.1026,4303.0769,4228.7179,4224.1026,4409.7436,4159.4872,4166.6667,4094.359
4360,4171.7949,4292.8205,3798.9744,4301.5385,4321.0256,4247.1795,4239.4872,4437.4359,4175.8974,4137.4359,4088.2051
4371.7949,4170.2564,4303.5897,3807.6923,4322.5641,4338.4615,4258.9744,4242.5641,4413.3333,4172.3077,4172.8205,4131.7949
4356.4103,4173.3333,4307.1795,3814.359,4320,4328.7179,4251.2821,4232.8205,4409.7436,4166.6667,4167.6923,4147.6923
4331.7949,4173.8462,4310.2564,3820,4305.641,4313.3333,4242.5641,4235.8974,4448.2051,4190.7692,4117.4359,4106.1538
4345.1282,4165.641,4311.2821,3819.4872,4306.1538,4321.0256,4245.1282,4242.0513,4443.0769,4187.1795,4124.6154,4123.0769
4346.1538,4159.4872,4305.1282,3816.4103,4312.8205,4327.1795,4250.2564,4233.8462,4412.8205,4148.7179,4156.4103,4171.2821
4303.0769,4168.7179,4296.9231,3815.8974,4304.1026,4314.359,4249.7436,4229.7436,4420.5128,4147.1795,4136.9231,4156.4103
4297.4359,4168.2051,4304.6154,3823.0769,4292.8205,4308.2051,4245.641,4238.9744,4439.4872,4171.2821,4112.3077,4143.5897
4329.2308,4162.0513,4315.8974,3833.3333,4298.4615,4315.3846,4247.6923,4246.6667,4442.0513,4172.3077,4115.3846,4170.2564
4311.2821,4165.641,4299.4872,3833.3333,4308.7179,4316.4103,4249.2308,4238.9744,4436.9231,4173.3333,4103.5897,4170.2564
4273.3333,4164.1026,4278.9744,3835.3846,4302.5641,4310.7692,4242.5641,4231.2821,4421.0256,4184.1026,4085.1282,4158.4615
4275.3846,4162.5641,4284.1026,3855.8974,4292.3077,4305.1282,4234.359,4231.2821,4411.2821,4175.8974,4083.0769,4174.359
4280,4160,4287.6923,3875.3846,4296.9231,4307.1795,4231.2821,4224.1026,4410.2564,4161.5385,4089.2308,4196.4103
4274.359,4154.8718,4274.8718,3873.3333,4294.8718,4311.2821,4237.4359,4220.5128,4398.9744,4163.0769,4094.8718,4215.3846
4260,4157.9487,4274.359,3864.6154,4273.3333,4308.7179,4248.2051,4228.7179,4403.5897,4171.7949,4077.9487,4216.9231
4227.1795,4152.8205,4288.2051,3861.0256,4264.1026,4307.1795,4246.6667,4231.7949,4417.4359,4175.8974,4051.7949,4200
4228.2051,4149.2308,4289.2308,3860,4268.2051,4303.5897,4236.9231,4229.2308,4407.6923,4172.8205,4061.0256,4212.3077
4256.4103,4158.4615,4278.4615,3870.7692,4266.1538,4294.8718,4231.2821,4222.0513,4398.9744,4164.6154,4074.8718,4222.5641
4229.7436,4161.0256,4276.4103,3881.5385,4263.0769,4288.7179,4228.7179,4214.359,4413.8462,4168.7179,4041.5385,4192.8205
4203.5897,4155.3846,4283.0769,3878.9744,4264.1026,4294.359,4231.7949,4220.5128,4426.1538,4187.1795,4011.2821,4187.6923
4224.1026,4146.1538,4280.5128,3880.5128,4263.5897,4296.4103,4232.3077,4215.3846,4414.359,4190.2564,4022.0513,4219.4872
4211.7949,4149.2308,4275.8974,3893.8462,4262.0513,4292.3077,4226.6667,4200.5128,4415.8974,4183.0769,4027.1795,4234.8718
4190.7692,4156.9231,4275.3846,3904.6154,4254.8718,4291.7949,4225.1282,4210.7692,4430.7692,4187.1795,4021.0256,4231.2821
4219.4872,4148.7179,4269.7436,3906.1538,4243.5897,4295.3846,4230.2564,4223.0769,4416.9231,4178.9744,4039.4872,4246.6667
4213.8462,4144.6154,4263.5897,3897.9487,4238.9744,4295.8974,4232.8205,4216.9231,4408.7179,4165.1282,4042.0513,4265.641
4165.1282,4146.1538,4264.1026,3892.3077,4224.6154,4286.1538,4230.2564,4213.8462,4432.8205,4180,3998.9744,4262.0513
4163.0769,4148.2051,4267.1795,3902.5641,4207.1795,4278.4615,4228.2051,4213.3333,4431.2821,4186.6667,3987.1795,4250.7692
4188.2051,4145.1282,4262.0513,3913.8462,4221.0256,4286.6667,4229.7436,4212.8205,4406.6667,4166.1538,4027.1795,4257.4359
4172.8205,4141.0256,4249.7436,3913.3333,4238.4615,4297.9487,4230.7692,4215.3846,4407.1795,4163.0769,4030.2564,4257.4359
4145.1282,4146.1538,4242.5641,3912.3077,4223.5897,4290.2564,4223.5897,4208.2051,4409.7436,4171.2821,3995.3846,4241.0256
4145.641,4140,4242.0513,3908.2051,4211.7949,4276.4103,4214.8718,4198.4615,4406.1538,4171.2821,3993.8462,4247.1795
4143.5897,4133.3333,4237.4359,3898.9744,4215.8974,4273.8462,4216.4103,4198.9744,4410.7692,4184.1026,4001.0256,4255.3846
4116.9231,4139.4872,4228.2051,3894.8718,4209.7436,4266.6667,4216.9231,4197.9487,4397.4359,4188.7179,3988.7179,4261.0256
4108.7179,4135.8974,4227.6923,3888.7179,4194.8718,4258.4615,4214.8718,4198.4615,4384.6154,4178.9744,3986.6667,4264.1026
4118.9744,4131.7949,4234.359,3881.5385,4186.1538,4261.0256,4216.9231,4200,4397.4359,4181.0256,3987.6923,4253.8462
4104.1026,4130.7692,4228.2051,3884.1026,4180,4263.5897,4215.8974,4189.2308,4395.3846,4174.359,3974.359,4250.7692
4061.5385,4131.2821,4213.3333,3890.2564,4178.9744,4258.4615,4212.3077,4182.0513,4380.5128,4160,3942.0513,4244.1026
4045.1282,4131.7949,4216.9231,3897.4359,4188.2051,4260.5128,4216.4103,4194.8718,4380.5128,4175.3846,3933.8462,4244.6154
4088.2051,4126.1538,4236.4103,3909.2308,4188.7179,4266.1538,4223.5897,4204.6154,4384.1026,4192.3077,3964.6154,4283.5897
4108.2051,4132.3077,4238.4615,3913.8462,4172.3077,4253.8462,4218.4615,4197.4359,4389.7436,4181.0256,3964.6154,4308.7179
4062.5641,4135.3846,4222.5641,3910.7692,4171.7949,4245.1282,4210.7692,4195.8974,4394.8718,4177.9487,3936.4103,4286.1538
4045.641,4128.2051,4222.0513,3914.8718,4186.6667,4261.0256,4217.9487,4200.5128,4382.0513,4193.3333,3938.4615,4266.1538
4081.0256,4131.7949,4233.3333,3928.2051,4184.6154,4262.5641,4217.4359,4192.3077,4371.2821,4192.3077,3935.3846,4272.8205
4073.3333,4140,4232.3077,3953.3333,4185.641,4239.4872,4197.9487,4177.9487,4383.5897,4180,3916.4103,4293.3333
4047.1795,4142.5641,4228.2051,3993.3333,4214.359,4232.3077,4194.359,4181.0256,4395.3846,4186.1538,3928.2051,4313.3333
4082.5641,4135.8974,4228.7179,4044.6154,4243.5897,4247.6923,4209.7436,4187.1795,4386.6667,4188.7179,3947.6923,4325.1282
4121.5385,4140.5128,4224.6154,4115.3846,4266.1538,4249.2308,4208.2051,4178.9744,4375.8974,4181.0256,3953.3333,4340.5128
4111.7949,4152.8205,4213.8462,4177.9487,4277.4359,4232.8205,4200.5128,4176.4103,4365.1282,4188.7179,3971.2821,4348.7179
4088.2051,4140,4200,4190.7692,4265.1282,4229.2308,4206.1538,4182.5641,4343.5897,4192.8205,3986.6667,4349.2308
4075.8974,4131.7949,4190.2564,4176.9231,4247.1795,4236.9231,4209.7436,4186.6667,4329.7436,4184.1026,3990.7692,4363.0769
4063.0769,4142.0513,4184.1026,4157.4359,4226.1538,4232.8205,4202.0513,4178.9744,4329.2308,4180,3993.8462,4358.9744
4034.8718,4141.5385,4170.7692,4121.0256,4197.4359,4221.5385,4193.8462,4167.1795,4331.2821,4180.5128,3972.3077,4316.4103
4016.4103,4129.2308,4163.0769,4090.7692,4187.1795,4225.641,4195.8974,4174.8718,4332.3077,4178.9744,3948.7179,4315.8974
4024.6154,4120,4173.8462,4087.6923,4198.4615,4235.3846,4200.5128,4186.6667,4318.9744,4177.4359,3963.0769,4355.8974
4015.8974,4130.7692,4170.2564,4091.7949,4197.9487,4230.2564,4200,4174.359,4296.9231,4166.6667,3967.1795,4334.359
3995.8974,4134.8718,4150.2564,4095.8974,4195.3846,4230.7692,4200,4168.2051,4310.2564,4163.5897,3923.5897,4296.9231
4000,4118.9744,4158.9744,4111.2821,4215.8974,4242.5641,4203.5897,4183.0769,4350.7692,4191.7949,3869.2308,4323.5897
4006.1538,4116.9231,4175.3846,4128.7179,4214.8718,4240.5128,4203.0769,4178.4615,4342.5641,4201.0256,3878.9744,4346.1538
3997.4359,4120.5128,4163.5897,4142.0513,4208.7179,4228.2051,4196.4103,4162.5641,4287.6923,4165.1282,3957.4359,4341.5385
4006.6667,4122.5641,4157.9487,4155.3846,4232.8205,4232.3077,4200,4167.6923,4268.7179,4147.1795,4002.5641,4372.8205
4011.2821,4125.1282,4167.6923,4154.359,4237.9487,4235.3846,4205.641,4172.8205,4297.4359,4168.7179,3960,4378.4615
3970.7692,4118.4615,4159.4872,4141.0256,4208.2051,4221.0256,4193.8462,4163.5897,4296.4103,4167.6923,3926.6667,4329.7436
3947.6923,4117.4359,4149.7436,4143.0769,4203.5897,4216.9231,4183.0769,4165.1282,4263.5897,4150.2564,3953.3333,4336.4103
3976.9231,4121.0256,4156.4103,4155.3846,4226.6667,4232.8205,4190.2564,4172.3077,4241.0256,4160.5128,3974.8718,4356.9231
3974.359,4121.0256,4148.2051,4150.2564,4230.7692,4242.5641,4192.8205,4163.5897,4233.8462,4168.2051,3960,4323.5897
3936.9231,4115.3846,4139.4872,4151.2821,4227.1795,4236.9231,4189.2308,4157.4359,4262.0513,4177.9487,3894.8718,4304.6154
3946.1538,4110.2564,4156.4103,4177.4359,4233.8462,4231.2821,4192.8205,4168.7179,4282.0513,4202.0513,3874.8718,4332.3077
3960.5128,4112.8205,4161.5385,4195.3846,4242.0513,4227.6923,4194.8718,4173.3333,4230.7692,4184.6154,3963.5897,4369.2308
3934.8718,4096.4103,4146.6667,4205.1282,4256.9231,4221.0256,4193.8462,4164.6154,4208.7179,4159.4872,3968.2051,4371.2821
3947.1795,4083.5897,4148.2051,4230.7692,4271.2821,4213.3333,4196.9231,4167.6923,4257.9487,4184.6154,3876.9231,4343.0769
3980.5128,4094.8718,4147.6923,4254.8718,4276.4103,4217.9487,4193.3333,4167.1795,4226.1538,4176.4103,3920,4333.8462
3955.3846,4095.8974,4123.5897,4264.1026,4266.1538,4226.1538,4185.1282,4151.2821,4143.0769,4124.6154,4013.8462,4346.1538
3923.0769,4092.3077,4111.7949,4266.6667,4260,4221.0256,4189.7436,4150.2564,4146.6667,4127.6923,3982.5641,4332.3077
3936.4103,4091.7949,4124.1026,4266.1538,4269.7436,4219.4872,4193.3333,4161.0256,4178.9744,4162.0513,3953.8462,4323.5897
3932.3077,4090.2564,4123.0769,4263.0769,4254.359,4216.4103,4183.0769,4157.9487,4184.6154,4163.0769,3963.0769,4341.5385
3903.5897,4088.2051,4107.6923,4262.0513,4227.6923,4207.1795,4176.4103,4151.7949,4176.4103,4147.6923,3953.3333,4331.7949
3915.3846,4084.1026,4111.7949,4270.2564,4255.8974,4210.7692,4184.1026,4155.8974,4151.7949,4148.7179,3996.4103,4326.6667
3931.7949,4092.8205,4120,4281.0256,4292.3077,4217.9487,4188.2051,4155.3846,4138.4615,4152.8205,4030.2564,4345.1282
3900,4095.3846,4105.1282,4279.4872,4269.7436,4213.8462,4183.5897,4150.7692,4157.9487,4150.7692,3982.0513,4342.0513
3890.7692,4088.2051,4103.0769,4283.5897,4248.7179,4214.8718,4186.6667,4154.8718,4162.5641,4158.9744,3970.2564,4334.8718
3918.4615,4091.2821,4119.4872,4305.641,4266.6667,4217.9487,4191.7949,4158.4615,4165.641,4173.8462,4005.1282,4347.1795
3920.5128,4087.6923,4115.3846,4310.7692,4273.3333,4209.7436,4186.1538,4155.3846,4184.6154,4163.0769,4004.1026,4343.5897
3900,4083.5897,4097.4359,4298.9744,4257.9487,4204.1026,4182.0513,4153.3333,4169.7436,4137.4359,3992.8205,4321.0256
3876.4103,4080.5128,4092.3077,4289.7436,4238.9744,4208.2051,4185.1282,4154.8718,4133.8462,4130.7692,3994.8718,4320.5128
3856.9231,4074.8718,4087.6923,4274.359,4226.1538,4207.6923,4185.1282,4154.8718,4110.2564,4120.5128,3976.9231,4311.7949
3871.2821,4081.0256,4088.7179,4267.1795,4244.1026,4203.5897,4185.1282,4153.8462,4134.359,4121.5385,3933.8462,4288.7179
3913.8462,4083.5897,4104.1026,4279.4872,4258.9744,4202.5641,4184.1026,4155.8974,4172.3077,4152.3077,3920.5128,4306.1538
3917.4359,4083.0769,4104.1026,4281.5385,4219.4872,4195.3846,4175.3846,4153.3333,4138.4615,4153.3333,3956.9231,4324.1026
3894.359,4088.2051,4089.7436,4270.7692,4191.7949,4188.2051,4168.7179,4144.1026,4098.4615,4130.2564,3970.7692,4296.4103
3904.1026,4087.6923,4092.8205,4274.359,4224.6154,4192.8205,4170.2564,4141.0256,4130.2564,4140,3931.7949,4285.641
3933.8462,4087.1795,4107.6923,4285.641,4251.7949,4196.9231,4176.9231,4152.8205,4161.0256,4156.9231,3927.6923,4308.7179
3945.1282,4082.0513,4104.1026,4282.0513,4238.9744,4185.1282,4178.9744,4160,4142.0513,4143.5897,3952.3077,4313.8462
3933.8462,4085.1282,4090.2564,4277.9487,4223.5897,4177.9487,4174.359,4151.2821,4145.1282,4133.8462,3921.0256,4287.6923
3938.4615,4093.8462,4092.3077,4287.1795,4223.0769,4184.6154,4170.7692,4150.7692,4163.5897,4144.6154,3903.5897,4278.4615
3962.5641,4094.359,4098.9744,4289.2308,4218.9744,4178.9744,4168.7179,4154.359,4149.7436,4140,3949.7436,4310.7692
3960,4095.8974,4095.8974,4269.7436,4199.4872,4166.6667,4167.6923,4145.1282,4148.2051,4133.3333,3937.9487,4307.6923
3939.4872,4085.641,4087.6923,4245.1282,4184.6154,4167.1795,4168.7179,4136.4103,4155.8974,4139.4872,3884.1026,4252.3077
3944.1026,4077.9487,4088.7179,4242.0513,4194.8718,4170.7692,4168.7179,4137.9487,4152.8205,4130.2564,3885.641,4252.8205
3954.8718,4086.6667,4095.3846,4254.359,4199.4872,4169.7436,4164.6154,4136.4103,4155.3846,4124.6154,3886.1538,4282.0513
3957.4359,4091.2821,4104.1026,4255.3846,4191.7949,4169.2308,4164.6154,4133.8462,4151.7949,4136.4103,3891.7949,4274.8718
3964.6154,4094.8718,4109.2308,4250.7692,4195.8974,4169.2308,4173.8462,4143.5897,4141.5385,4132.3077,3937.4359,4293.8462
3970.2564,4092.8205,4100.5128,4250.7692,4191.2821,4169.7436,4173.3333,4145.1282,4145.1282,4114.8718,3935.8974,4315.3846
3975.3846,4091.7949,4094.359,4250.2564,4164.6154,4171.7949,4162.5641,4133.8462,4156.9231,4121.5385,3894.359,4280
3980,4105.1282,4105.1282,4247.1795,4157.9487,4165.1282,4165.1282,4137.4359,4157.4359,4136.9231,3906.1538,4277.9487
3978.4615,4107.6923,4109.7436,4240.5128,4159.4872,4155.8974,4169.2308,4147.1795,4164.1026,4137.4359,3920.5128,4308.2051
3971.2821,4100,4097.9487,4222.0513,4132.8205,4156.4103,4158.9744,4141.0256,4176.9231,4134.8718,3882.0513,4283.5897
3988.2051,4102.0513,4098.9744,4214.359,4134.8718,4165.1282,4159.4872,4136.9231,4166.6667,4137.4359,3890.2564,4276.9231
4008.2051,4108.7179,4112.3077,4221.5385,4160.5128,4171.7949,4168.2051,4137.9487,4157.4359,4137.4359,3924.1026,4310.2564
3991.2821,4103.5897,4107.6923,4212.8205,4144.6154,4165.1282,4164.1026,4131.2821,4162.5641,4131.7949,3904.1026,4298.4615
3973.3333,4087.6923,4102.5641,4205.1282,4129.7436,4160,4161.0256,4127.1795,4176.4103,4140,3886.1538,4275.3846
3983.5897,4089.7436,4114.359,4213.3333,4152.8205,4173.3333,4171.7949,4132.8205,4192.3077,4158.4615,3893.8462,4282.0513
4001.5385,4095.3846,4113.8462,4211.7949,4153.8462,4192.3077,4172.3077,4138.9744,4186.6667,4153.3333,3888.2051,4282.0513
3989.7436,4091.7949,4094.359,4197.4359,4126.6667,4192.3077,4161.0256,4131.7949,4160.5128,4132.3077,3888.2051,4278.4615
3975.8974,4099.4872,4095.3846,4191.7949,4118.4615,4181.0256,4161.0256,4122.5641,4154.359,4127.6923,3913.8462,4297.9487
3981.5385,4100.5128,4109.7436,4176.9231,4095.8974,4180.5128,4162.5641,4122.5641,4169.7436,4133.8462,3910.2564,4289.7436
3961.5385,4098.4615,4097.4359,4131.7949,4046.1538,4180.5128,4156.9231,4120.5128,4154.359,4127.1795,3882.0513,4250.2564
3943.0769,4100,4086.1538,4096.9231,4026.6667,4172.8205,4151.7949,4112.8205,4129.7436,4117.4359,3894.359,4265.1282
3952.3077,4103.0769,4100.5128,4101.5385,4037.9487,4174.359,4148.2051,4113.3333,4146.6667,4122.5641,3912.3077,4304.1026
3945.641,4109.2308,4111.2821,4111.2821,4041.5385,4181.0256,4143.0769,4122.0513,4176.9231,4138.9744,3888.2051,4274.8718
3926.6667,4102.0513,4105.1282,4107.1795,4044.1026,4184.6154,4146.1538,4123.0769,4171.2821,4145.1282,3881.0256,4254.359
3947.1795,4097.4359,4103.0769,4118.9744,4060.5128,4191.7949,4154.359,4118.9744,4163.0769,4136.4103,3900,4293.3333
3991.7949,4104.1026,4112.8205,4151.2821,4089.2308,4194.359,4152.8205,4118.4615,4190.7692,4145.641,3902.0513,4300
4005.641,4107.6923,4124.1026,4164.1026,4092.8205,4189.7436,4151.7949,4119.4872,4213.3333,4168.2051,3895.3846,4282.0513
3996.4103,4110.2564,4125.1282,4157.9487,4058.4615,4187.6923,4152.3077,4111.7949,4199.4872,4164.6154,3896.4103,4299.4872
3996.9231,4105.641,4122.5641,4161.0256,4052.8205,4178.9744,4142.0513,4100.5128,4183.5897,4157.9487,3904.6154,4317.9487
4007.6923,4103.0769,4127.1795,4155.8974,4072.8205,4165.1282,4134.8718,4105.1282,4189.7436,4165.1282,3923.0769,4318.9744
4004.6154,4107.1795,4127.1795,4131.2821,4056.9231,4167.1795,4141.5385,4110.2564,4189.7436,4161.0256,3925.1282,4308.7179
3988.2051,4102.0513,4121.5385,4111.7949,4030.7692,4174.359,4145.641,4103.5897,4174.8718,4151.7949,3913.8462,4294.359
3987.6923,4103.0769,4124.1026,4109.2308,4040.5128,4176.9231,4145.641,4107.1795,4167.6923,4156.9231,3928.2051,4303.0769
3987.6923,4102.5641,4120,4108.7179,4046.6667,4185.1282,4146.6667,4114.8718,4156.9231,4152.8205,3943.0769,4317.4359
3968.7179,4100,4109.2308,4102.0513,4031.2821,4188.2051,4146.6667,4110.2564,4140.5128,4142.0513,3928.7179,4314.8718
3962.0513,4106.1538,4116.4103,4094.359,4026.6667,4178.4615,4148.2051,4110.7692,4135.8974,4150.2564,3944.1026,4322.5641
3972.8205,4104.6154,4126.1538,4092.8205,4027.1795,4171.7949,4148.7179,4123.0769,4150.7692,4157.4359,3960,4309.2308
3966.6667,4101.0256,4123.5897,4094.359,4023.0769,4172.8205,4147.6923,4127.6923,4164.6154,4161.0256,3927.6923,4276.9231
3947.6923,4096.9231,4118.9744,4085.641,4021.5385,4171.7949,4140,4116.9231,4140.5128,4154.8718,3936.9231,4298.4615
3947.1795,4097.9487,4116.9231,4078.4615,4024.1026,4168.7179,4126.6667,4101.0256,4121.5385,4150.2564,3956.9231,4309.2308
3956.4103,4101.0256,4119.4872,4086.6667,4016.9231,4169.7436,4128.2051,4094.8718,4143.0769,4170.7692,3904.6154,4269.7436
3966.1538,4093.3333,4125.1282,4100.5128,4013.3333,4172.8205,4137.4359,4102.0513,4135.8974,4163.5897,3918.4615,4301.5385
3975.3846,4097.9487,4126.6667,4107.6923,4033.8462,4167.1795,4133.3333,4108.7179,4100.5128,4131.2821,4000.5128,4363.0769
3969.2308,4103.0769,4122.5641,4103.5897,4048.7179,4157.9487,4126.6667,4104.1026,4114.8718,4141.0256,3976.9231,4338.9744
3958.4615,4093.3333,4124.1026,4093.8462,4031.2821,4154.8718,4131.2821,4102.0513,4140.5128,4168.2051,3925.641,4300.5128
3956.4103,4087.1795,4125.1282,4080.5128,3998.9744,4151.7949,4130.2564,4101.0256,4114.8718,4150.2564,3951.7949,4302.5641
3947.6923,4085.641,4115.8974,4067.1795,3992.8205,4153.8462,4123.5897,4092.8205,4099.4872,4129.2308,3949.2308,4293.3333
3937.9487,4093.3333,4110.7692,4066.1538,4010.7692,4162.5641,4125.1282,4092.8205,4112.8205,4132.8205,3936.4103,4293.8462
3945.641,4096.9231,4115.8974,4072.3077,4017.4359,4165.641,4130.2564,4101.0256,4116.9231,4128.2051,3961.5385,4318.9744
3947.1795,4093.3333,4120,4074.8718,4013.8462,4163.5897,4134.359,4107.6923,4129.7436,4136.9231,3953.8462,4298.4615
3942.0513,4098.9744,4118.9744,4079.4872,4019.4872,4161.5385,4129.2308,4104.6154,4135.3846,4150.7692,3953.3333,4283.0769
3943.5897,4093.8462,4116.4103,4080.5128,4015.8974,4156.4103,4118.9744,4097.9487,4137.9487,4148.2051,3964.1026,4305.641
3939.4872,4090.7692,4118.4615,4075.8974,4005.1282,4147.6923,4120,4101.5385,4159.4872,4151.2821,3928.7179,4298.4615
3941.5385,4095.3846,4124.1026,4076.9231,4014.359,4143.5897,4126.1538,4107.1795,4152.3077,4151.2821,3935.8974,4298.4615
3946.6667,4089.2308,4119.4872,4070.7692,4012.3077,4141.5385,4123.0769,4098.9744,4122.5641,4141.0256,3973.8462,4326.1538
3931.2821,4088.2051,4112.8205,4056.4103,3993.3333,4132.3077,4117.9487,4088.2051,4135.3846,4147.6923,3934.359,4306.1538
3922.0513,4088.2051,4121.0256,4049.2308,3991.7949,4127.1795,4118.9744,4092.3077,4161.5385,4162.5641,3904.1026,4267.6923
3938.9744,4089.2308,4129.7436,4053.8462,3995.3846,4125.641,4122.5641,4100,4136.9231,4144.6154,3955.8974,4290.7692
3938.9744,4094.8718,4122.5641,4051.7949,3986.1538,4126.1538,4121.0256,4094.8718,4110.7692,4115.3846,3983.0769,4316.4103
3922.0513,4093.3333,4118.9744,4041.5385,3984.1026,4132.8205,4114.359,4086.1538,4127.6923,4116.9231,3952.8205,4296.9231
3930.7692,4093.3333,4132.3077,4046.6667,4001.5385,4133.8462,4115.8974,4092.8205,4148.7179,4130.2564,3937.4359,4292.3077
3940,4089.2308,4139.4872,4064.6154,4017.4359,4125.1282,4119.4872,4102.0513,4137.9487,4130.2564,3950.2564,4288.7179
3937.4359,4090.7692,4130.7692,4070.2564,4023.5897,4128.2051,4119.4872,4092.3077,4116.9231,4122.0513,3964.1026,4290.2564
3951.7949,4095.3846,4130.2564,4071.7949,4028.2051,4136.4103,4120.5128,4084.6154,4128.2051,4122.0513,3962.5641,4307.6923
3953.3333,4089.2308,4133.3333,4072.8205,4020,4121.0256,4113.3333,4087.1795,4140,4124.6154,3953.3333,4291.7949
3928.7179,4090.7692,4124.6154,4061.5385,4000.5128,4107.6923,4108.7179,4089.7436,4132.8205,4123.0769,3945.1282,4273.8462
3935.3846,4090.7692,4125.641,4054.359,3992.8205,4123.0769,4120,4096.9231,4134.359,4129.7436,3955.8974,4308.2051
3949.2308,4090.7692,4138.4615,4060,3995.8974,4129.2308,4126.6667,4098.9744,4137.4359,4134.359,3966.1538,4322.5641
3928.2051,4095.8974,4135.8974,4059.4872,3989.2308,4113.8462,4119.4872,4097.4359,4144.6154,4130.7692,3932.8205,4284.6154
3927.1795,4092.8205,4131.2821,4060.5128,3994.359,4112.8205,4119.4872,4102.0513,4150.7692,4132.8205,3919.4872,4289.7436
3942.0513,4094.359,4140,4067.1795,4007.1795,4132.8205,4128.7179,4099.4872,4139.4872,4141.5385,3950.7692,4304.1026
3929.2308,4091.2821,4141.0256,4062.5641,4000.5128,4140.5128,4127.6923,4090.2564,4128.7179,4138.4615,3944.6154,4276.4103
3924.1026,4088.2051,4131.2821,4054.8718,3989.2308,4123.5897,4120,4087.1795,4135.8974,4121.5385,3911.7949,4269.2308
3933.8462,4094.359,4122.0513,4054.8718,3988.7179,4110.2564,4112.3077,4080.5128,4141.0256,4117.9487,3906.6667,4268.7179
3930.7692,4091.2821,4121.0256,4050.2564,3985.641,4117.4359,4109.2308,4071.7949,4141.0256,4124.6154,3913.8462,4270.2564
3920.5128,4088.7179,4126.6667,4040,3982.5641,4120,4107.6923,4071.7949,4147.1795,4117.9487,3917.9487,4290.2564
3912.3077,4086.1538,4118.4615,4028.7179,3991.2821,4115.8974,4104.1026,4070.7692,4149.2308,4109.2308,3910.2564,4283.0769
3910.2564,4085.641,4108.2051,4027.1795,3990.7692,4115.3846,4102.5641,4070.7692,4146.6667,4117.9487,3896.9231,4246.6667
3924.6154,4092.3077,4118.9744,4041.0256,3986.1538,4112.8205,4107.1795,4082.5641,4138.4615,4122.5641,3920,4264.1026
3930.7692,4089.7436,4125.1282,4050.2564,3989.7436,4112.3077,4111.7949,4090.2564,4130.2564,4115.8974,3945.641,4306.1538
3922.5641,4090.7692,4114.359,4047.6923,3989.2308,4116.4103,4111.7949,4093.3333,4136.4103,4121.0256,3923.5897,4290.7692
3924.6154,4089.7436,4109.2308,4041.5385,3988.7179,4122.0513,4113.8462,4095.3846,4136.4103,4125.641,3909.7436,4268.7179
3924.1026,4083.5897,4109.2308,4035.3846,3991.2821,4124.6154,4114.8718,4083.0769,4129.2308,4117.4359,3915.8974,4282.0513
3910.2564,4088.7179,4103.0769,4036.4103,3987.1795,4124.6154,4117.4359,4077.4359,4137.4359,4124.6154,3900,4277.4359
3909.2308,4088.7179,4102.5641,4034.359,3984.6154,4123.0769,4125.641,4098.9744,4154.359,4140,3897.4359,4251.7949
3923.5897,4088.2051,4107.1795,4027.1795,3986.1538,4121.5385,4125.1282,4110.2564,4152.8205,4129.7436,3927.6923,4265.1282
3920,4092.3077,4097.9487,4027.6923,3982.0513,4114.8718,4111.7949,4089.7436,4147.1795,4111.2821,3927.1795,4289.7436
3908.2051,4089.7436,4090.7692,4028.7179,3979.4872,4111.7949,4107.1795,4080,4163.5897,4120,3892.8205,4278.4615
3922.5641,4088.2051,4094.359,4020,3987.1795,4123.0769,4116.4103,4085.1282,4169.2308,4126.1538,3895.3846,4275.3846
3934.359,4085.1282,4091.7949,4019.4872,3995.3846,4123.5897,4111.7949,4079.4872,4169.7436,4121.0256,3905.1282,4268.7179
3923.5897,4090.2564,4095.8974,4030.2564,3993.3333,4112.8205,4103.0769,4081.5385,4186.1538,4130.2564,3894.8718,4242.5641
3929.2308,4094.359,4107.6923,4033.8462,3990.2564,4118.9744,4107.1795,4092.3077,4186.6667,4132.8205,3911.7949,4265.641
3953.3333,4087.6923,4109.2308,4033.3333,3995.3846,4121.5385,4108.2051,4088.2051,4165.1282,4118.4615,3937.9487,4314.359
3955.8974,4090.7692,4105.641,4037.9487,3990.7692,4103.0769,4106.6667,4078.4615,4162.5641,4115.8974,3933.8462,4315.3846
3946.1538,4090.2564,4110.2564,4037.9487,3976.4103,4094.359,4106.1538,4077.9487,4178.4615,4124.6154,3911.2821,4290.7692
3937.9487,4088.2051,4110.7692,4029.7436,3974.359,4100.5128,4100,4076.9231,4167.6923,4122.0513,3887.6923,4267.6923
3931.2821,4090.2564,4105.1282,4016.9231,3977.9487,4104.6154,4098.9744,4075.3846,4149.7436,4115.3846,3875.3846,4266.6667
3935.3846,4087.6923,4106.6667,4015.8974,3974.359,4108.2051,4105.641,4078.9744,4160,4122.0513,3870.2564,4277.9487
3937.9487,4098.4615,4107.6923,4028.2051,3976.4103,4107.6923,4102.5641,4077.9487,4169.7436,4120.5128,3862.0513,4275.3846
3940.5128,4102.5641,4107.6923,4039.4872,3991.2821,4103.5897,4095.3846,4073.3333,4173.8462,4117.4359,3856.9231,4277.9487
3955.8974,4098.4615,4110.7692,4049.7436,4008.7179,4104.6154,4096.9231,4072.3077,4183.5897,4130.2564,3860,4283.0769
3974.359,4104.6154,4117.9487,4066.6667,4021.0256,4108.2051,4096.9231,4075.3846,4177.9487,4132.8205,3881.0256,4284.1026
3987.1795,4107.6923,4125.1282,4083.0769,4025.641,4106.6667,4094.8718,4076.9231,4168.2051,4121.0256,3908.7179,4309.7436
3991.2821,4103.0769,4118.9744,4079.4872,4021.0256,4106.6667,4094.8718,4076.4103,4181.5385,4123.5897,3891.2821,4316.4103
3981.5385,4088.7179,4104.6154,4063.0769,4021.0256,4107.6923,4097.4359,4080,4181.5385,4134.8718,3863.5897,4277.4359
3972.8205,4089.7436,4110.7692,4056.9231,4018.4615,4108.7179,4104.1026,4081.5385,4161.5385,4132.8205,3890.2564,4277.4359
3975.3846,4103.5897,4122.0513,4055.3846,4002.0513,4108.2051,4109.2308,4077.9487,4171.7949,4132.8205,3899.4872,4304.1026
3965.641,4090.2564,4109.2308,4050.2564,3993.8462,4104.1026,4105.1282,4078.9744,4192.8205,4136.4103,3861.5385,4282.5641
3958.9744,4082.5641,4100.5128,4059.4872,4008.7179,4097.9487,4098.4615,4082.5641,4175.8974,4123.0769,3877.4359,4273.8462
3975.8974,4093.8462,4109.2308,4077.9487,4019.4872,4093.8462,4090.2564,4075.8974,4151.2821,4115.8974,3924.1026,4311.2821
3978.9744,4095.8974,4110.2564,4082.5641,4018.9744,4091.2821,4086.6667,4068.7179,4157.9487,4128.7179,3913.3333,4312.8205
3969.7436,4094.359,4110.7692,4084.1026,4029.7436,4090.7692,4096.9231,4080,4170.2564,4135.3846,3893.8462,4288.2051
3981.0256,4089.2308,4120.5128,4090.2564,4037.9487,4093.8462,4106.1538,4090.2564,4154.8718,4124.6154,3925.1282,4305.1282
3986.1538,4093.3333,4124.6154,4087.1795,4029.2308,4093.3333,4102.0513,4085.641,4144.1026,4120,3945.1282,4315.3846
3971.7949,4099.4872,4119.4872,4073.8462,4025.1282,4090.2564,4096.4103,4083.5897,4156.4103,4125.641,3929.2308,4295.3846
3971.2821,4093.8462,4112.3077,4061.0256,4025.1282,4089.7436,4100.5128,4090.7692,4154.8718,4124.6154,3924.1026,4289.2308
3973.3333,4093.8462,4114.359,4056.9231,4024.6154,4092.8205,4108.2051,4095.8974,4145.641,4127.6923,3932.8205,4292.8205
3965.641,4092.8205,4126.1538,4055.8974,4023.5897,4091.2821,4104.6154,4091.7949,4156.9231,4136.9231,3940.5128,4289.7436
3965.641,4095.3846,4128.7179,4053.3333,4011.7949,4077.4359,4100.5128,4089.7436,4162.5641,4138.4615,3944.6154,4292.3077
3965.641,4095.8974,4120.5128,4049.7436,4002.0513,4070.2564,4105.641,4091.2821,4153.8462,4132.3077,3945.1282,4298.4615
3963.0769,4087.6923,4122.0513,4049.2308,4010.2564,4082.0513,4112.3077,4092.3077,4164.1026,4126.6667,3932.8205,4302.5641
3970.7692,4086.6667,4126.6667,4050.7692,4017.4359,4089.2308,4110.2564,4094.359,4177.4359,4124.6154,3926.1538,4305.1282
3971.7949,4088.7179,4123.5897,4051.7949,4013.8462,4081.5385,4103.0769,4090.2564,4171.2821,4125.1282,3944.6154,4287.6923
3953.3333,4090.7692,4119.4872,4049.7436,4012.8205,4078.4615,4104.1026,4086.1538,4177.9487,4131.7949,3947.6923,4265.1282
3948.7179,4089.2308,4121.0256,4049.7436,4019.4872,4084.6154,4109.7436,4097.4359,4190.7692,4141.0256,3933.3333,4257.9487
3967.1795,4084.6154,4123.0769,4057.4359,4026.1538,4084.1026,4107.6923,4103.5897,4190.2564,4140.5128,3938.9744,4281.0256
3970.2564,4087.6923,4122.5641,4062.5641,4025.1282,4074.8718,4101.5385,4087.1795,4193.3333,4135.3846,3939.4872,4309.7436
3960.5128,4086.1538,4121.0256,4063.0769,4021.0256,4076.9231,4102.5641,4081.0256,4183.5897,4140,3935.8974,4292.3077
3961.5385,4089.2308,4124.1026,4064.1026,4025.641,4086.1538,4110.7692,4096.4103,4157.4359,4142.0513,3957.4359,4269.2308
3962.5641,4094.8718,4121.5385,4066.6667,4031.2821,4086.1538,4109.7436,4098.4615,4143.0769,4128.2051,3974.359,4296.9231
3951.7949,4086.1538,4109.2308,4068.2051,4028.7179,4084.6154,4103.0769,4088.2051,4150.7692,4123.0769,3957.9487,4305.641
3949.2308,4088.2051,4106.6667,4065.641,4023.5897,4085.641,4107.6923,4093.3333,4163.0769,4141.5385,3944.6154,4262.0513
3952.8205,4091.2821,4111.2821,4062.5641,4024.1026,4083.5897,4110.2564,4097.4359,4154.8718,4140.5128,3958.9744,4266.6667
3942.5641,4088.2051,4109.2308,4062.5641,4021.0256,4086.1538,4108.2051,4097.4359,4139.4872,4122.5641,3966.1538,4298.9744
3933.3333,4085.641,4110.2564,4057.4359,4012.8205,4091.2821,4117.4359,4099.4872,4137.4359,4124.1026,3955.3846,4275.3846
3937.4359,4080.5128,4112.3077,4044.1026,4006.1538,4094.359,4122.0513,4094.359,4133.3333,4127.6923,3946.6667,4252.3077
3939.4872,4088.2051,4108.2051,4047.1795,4000.5128,4093.3333,4115.3846,4088.7179,4130.2564,4123.5897,3936.9231,4254.8718
3933.8462,4087.6923,4108.7179,4061.5385,4004.6154,4087.1795,4110.2564,4091.2821,4137.4359,4127.6923,3937.4359,4261.5385
3929.7436,4076.4103,4111.7949,4068.7179,4022.0513,4083.5897,4108.7179,4091.2821,4122.0513,4117.9487,3958.9744,4278.4615
3925.1282,4076.9231,4108.2051,4075.3846,4035.3846,4087.1795,4114.359,4089.2308,4123.5897,4122.5641,3926.1538,4247.1795
3925.641,4074.8718,4110.2564,4088.7179,4040.5128,4086.1538,4118.9744,4093.8462,4146.6667,4155.3846,3875.8974,4205.641
3931.7949,4080.5128,4111.7949,4105.1282,4058.9744,4080.5128,4110.7692,4093.8462,4118.9744,4138.4615,3933.8462,4260
3929.7436,4083.5897,4103.5897,4112.3077,4077.4359,4089.7436,4109.7436,4089.2308,4095.3846,4101.5385,3986.1538,4290.7692
3927.6923,4076.9231,4104.1026,4112.8205,4071.7949,4100,4121.5385,4093.3333,4126.1538,4127.6923,3951.2821,4244.1026
3928.2051,4083.0769,4110.7692,4110.2564,4058.9744,4089.7436,4117.9487,4097.4359,4124.1026,4147.1795,3953.3333,4255.8974
3917.4359,4084.6154,4105.641,4094.8718,4052.3077,4075.8974,4105.1282,4095.3846,4092.3077,4120,3990.2564,4288.7179
3908.2051,4081.0256,4101.5385,4076.4103,4038.9744,4073.3333,4107.1795,4093.3333,4101.0256,4121.5385,3963.0769,4241.5385
3916.9231,4081.5385,4110.2564,4071.7949,4031.7949,4084.1026,4117.9487,4096.9231,4117.4359,4148.2051,3942.5641,4222.5641
3912.3077,4083.5897,4113.3333,4073.8462,4036.9231,4091.7949,4116.9231,4094.8718,4100.5128,4142.5641,3977.9487,4259.4872
3887.6923,4083.0769,4104.1026,4074.8718,4035.8974,4084.1026,4108.2051,4087.6923,4103.5897,4134.359,3967.6923,4237.9487
3892.3077,4074.359,4101.5385,4089.7436,4043.0769,4078.9744,4110.7692,4092.3077,4131.2821,4145.1282,3932.3077,4215.8974
3914.359,4078.4615,4110.2564,4115.3846,4067.1795,4088.2051,4120.5128,4098.4615,4115.3846,4140.5128,3952.3077,4248.7179
3910.7692,4082.0513,4105.1282,4125.641,4078.4615,4096.4103,4117.9487,4096.9231,4076.9231,4126.6667,3984.6154,4245.1282
3905.1282,4073.3333,4093.3333,4120.5128,4073.8462,4088.7179,4114.8718,4106.6667,4092.8205,4136.4103,3975.8974,4217.9487
3904.1026,4075.8974,4091.7949,4110.7692,4068.7179,4090.7692,4123.5897,4110.7692,4112.3077,4137.9487,3961.0256,4237.9487
3893.3333,4077.9487,4088.2051,4098.9744,4060,4100.5128,4122.0513,4092.8205,4088.2051,4117.4359,3972.3077,4255.8974
3900,4080.5128,4091.7949,4093.8462,4043.5897,4083.5897,4111.2821,4091.7949,4087.6923,4123.5897,3980.5128,4237.9487
3908.2051,4080,4100.5128,4088.2051,4026.1538,4063.5897,4107.1795,4106.1538,4107.6923,4145.1282,3968.7179,4222.5641
3886.1538,4072.8205,4095.8974,4074.359,4015.3846,4069.7436,4107.6923,4100,4101.0256,4144.6154,3945.1282,4199.4872
3877.9487,4076.9231,4094.359,4066.6667,4016.4103,4078.4615,4107.6923,4087.1795,4088.2051,4134.359,3945.641,4198.9744
3895.3846,4075.3846,4103.5897,4075.8974,4028.2051,4076.4103,4106.6667,4090.2564,4097.4359,4135.3846,3960.5128,4234.359
3899.4872,4074.8718,4106.1538,4094.8718,4047.1795,4085.1282,4113.3333,4103.5897,4112.8205,4145.1282,3951.2821,4237.9487
3904.1026,4075.8974,4106.1538,4111.7949,4058.9744,4093.3333,4116.4103,4104.6154,4107.6923,4144.1026,3954.359,4225.641
3911.7949,4074.8718,4104.1026,4123.0769,4060.5128,4083.5897,4106.6667,4085.641,4090.2564,4129.7436,3969.2308,4216.4103
3903.5897,4084.6154,4096.4103,4126.6667,4064.1026,4068.2051,4101.5385,4078.4615,4088.2051,4129.2308,3952.3077,4191.2821
3917.9487,4084.6154,4103.0769,4125.641,4069.7436,4066.1538,4103.5897,4093.3333,4100,4142.0513,3960.5128,4207.1795
3929.2308,4081.0256,4108.2051,4120.5128,4064.1026,4081.0256,4105.641,4093.8462,4101.5385,4137.9487,3996.4103,4250.2564
3908.7179,4088.7179,4104.1026,4117.4359,4057.9487,4089.7436,4111.7949,4090.2564,4108.7179,4138.4615,3992.3077,4248.2051
3916.4103,4087.1795,4117.4359,4124.6154,4062.0513,4081.0256,4115.8974,4106.6667,4125.1282,4159.4872,3987.1795,4241.0256
3935.3846,4084.6154,4124.6154,4130.2564,4061.0256,4073.3333,4110.2564,4106.6667,4123.0769,4157.9487,3993.8462,4251.7949
3920.5128,4087.1795,4107.1795,4127.1795,4058.4615,4076.4103,4104.1026,4089.7436,4120,4142.5641,3967.6923,4232.3077
3913.8462,4083.0769,4103.0769,4121.0256,4056.9231,4078.9744,4107.6923,4089.7436,4127.1795,4147.6923,3956.4103,4224.6154
3917.4359,4080.5128,4110.2564,4114.359,4042.5641,4071.7949,4111.7949,4094.359,4119.4872,4148.7179,3978.4615,4246.1538
3903.0769,4082.0513,4106.1538,4100.5128,4034.359,4067.1795,4109.7436,4091.2821,4104.1026,4133.8462,3979.4872,4240.5128
3897.4359,4088.7179,4104.6154,4083.5897,4035.3846,4075.8974,4113.3333,4098.9744,4122.0513,4142.5641,3963.0769,4222.5641
3903.0769,4082.0513,4110.2564,4065.1282,4017.4359,4081.5385,4119.4872,4110.2564,4148.7179,4160,3965.1282,4225.1282
3898.4615,4075.3846,4110.2564,4043.5897,4000.5128,4072.3077,4115.3846,4100,4144.1026,4146.1538,3973.8462,4223.5897
3882.5641,4082.5641,4108.2051,4013.3333,3995.8974,4066.1538,4114.359,4095.3846,4128.7179,4131.2821,3950.2564,4199.4872
3851.2821,4070.2564,4108.7179,3967.1795,3981.5385,4067.1795,4118.9744,4103.5897,4126.1538,4136.9231,3915.3846,4176.9231
3843.5897,4065.641,4110.2564,3932.3077,3982.5641,4061.5385,4112.8205,4099.4872,4136.9231,4136.9231,3911.7949,4186.1538
3878.4615,4077.9487,4109.7436,3931.7949,4011.7949,4065.641,4110.7692,4092.3077,4157.9487,4133.8462,3914.8718,4205.1282
3889.2308,4076.4103,4103.5897,3933.8462,4015.8974,4077.9487,4116.4103,4096.4103,4174.8718,4136.4103,3880,4194.359
3857.4359,4072.8205,4100.5128,3913.8462,3991.7949,4069.2308,4116.9231,4095.3846,4183.5897,4131.7949,3811.7949,4170.7692
3845.641,4069.2308,4100.5128,3886.1538,3989.7436,4061.5385,4111.7949,4088.7179,4199.4872,4121.5385,3750.2564,4153.3333
3840.5128,4069.2308,4102.0513,3866.1538,3990.2564,4071.2821,4109.7436,4091.2821,4237.9487,4123.0769,3696.4103,4127.1795
3810.2564,4066.1538,4103.0769,3860.5128,3950.2564,4069.2308,4110.2564,4091.2821,4252.8205,4124.1026,3662.5641,4122.5641
3793.8462,4058.9744,4102.5641,3863.0769,3941.5385,4064.6154,4115.3846,4093.8462,4255.8974,4122.0513,3670.2564,4147.1795
3793.8462,4062.0513,4103.0769,3853.3333,3970.2564,4079.4872,4124.1026,4111.2821,4294.8718,4129.7436,3671.7949,4133.3333
3785.641,4057.4359,4097.4359,3839.4872,3962.5641,4094.359,4123.0769,4111.7949,4297.9487,4120.5128,3647.1795,4100.5128
3787.1795,4063.5897,4093.8462,3850.2564,3966.6667,4091.7949,4125.1282,4099.4872,4273.8462,4100.5128,3638.4615,4107.6923
3800,4080.5128,4093.8462,3868.7179,4012.8205,4088.2051,4134.359,4103.5897,4298.9744,4102.5641,3643.0769,4109.7436
3796.4103,4081.0256,4084.6154,3868.2051,3998.9744,4087.1795,4134.359,4110.2564,4320.5128,4109.7436,3614.8718,4087.1795
3778.9744,4077.4359,4078.9744,3857.9487,3952.8205,4085.641,4134.359,4113.3333,4304.1026,4103.5897,3586.6667,4086.6667
3749.7436,4071.2821,4086.1538,3835.3846,3956.9231,4081.0256,4135.8974,4122.0513,4318.9744,4100,3578.9744,4088.7179
3701.5385,4061.0256,4083.0769,3774.359,3938.9744,4076.4103,4124.6154,4108.7179,4342.5641,4090.7692,3543.0769,4055.3846
3679.4872,4053.3333,4069.2308,3718.4615,3896.9231,4073.3333,4106.1538,4074.359,4321.0256,4071.2821,3507.6923,4030.7692
3699.4872,4050.2564,4066.1538,3706.6667,3907.6923,4061.5385,4097.9487,4072.3077,4296.9231,4074.359,3510.2564,4039.4872
3711.7949,4062.5641,4060.5128,3663.0769,3918.9744,4051.7949,4097.9487,4085.641,4265.1282,4077.9487,3511.2821,4038.4615
3699.4872,4062.0513,4049.2308,3556.4103,3893.8462,4053.8462,4094.8718,4073.3333,4240.5128,4063.5897,3500.5128,4018.9744
3684.1026,4045.1282,4047.1795,3482.5641,3855.3846,4044.1026,4088.2051,4058.9744,4252.3077,4053.8462,3491.2821,4005.641
3686.1538,4056.4103,4050.2564,3480.5128,3855.8974,4033.3333,4084.1026,4067.6923,4263.5897,4057.4359,3483.0769,4005.641
3705.641,4084.6154,4048.7179,3495.8974,3903.0769,4049.2308,4093.8462,4077.9487,4263.0769,4066.6667,3476.9231,4004.1026
3712.3077,4092.3077,4044.1026,3494.8718,3913.8462,4064.1026,4098.9744,4076.9231,4272.8205,4069.2308,3470.7692,3990.2564
3701.5385,4078.4615,4042.5641,3485.1282,3876.9231,4056.4103,4089.7436,4074.359,4283.5897,4066.1538,3461.0256,3987.6923
3691.7949,4069.7436,4041.5385,3449.7436,3850.7692,4050.2564,4089.2308,4064.1026,4276.9231,4058.9744,3450.7692,3987.1795
3686.6667,4073.3333,4043.5897,3396.4103,3848.7179,4050.2564,4095.8974,4073.8462,4320,4076.4103,3448.2051,3976.4103
3713.8462,4080,4058.4615,3402.5641,3857.9487,4048.7179,4095.3846,4102.0513,4371.7949,4113.3333,3457.4359,4010.7692
3719.4872,4072.3077,4061.5385,3399.4872,3830.7692,4043.0769,4090.2564,4088.7179,4329.7436,4101.0256,3412.8205,4018.9744
3685.641,4053.8462,4049.7436,3337.4359,3796.4103,4036.9231,4093.3333,4063.5897,4291.2821,4067.6923,3311.7949,3968.7179
3719.4872,4077.9487,4068.2051,3367.1795,3831.2821,4036.9231,4097.9487,4077.9487,4350.2564,4098.9744,3277.9487,4026.1538
3769.2308,4121.0256,4078.9744,3450.7692,3859.4872,4038.9744,4096.9231,4088.7179,4385.1282,4130.7692,3278.9744,4094.359
3732.3077,4108.7179,4040.5128,3427.1795,3800,4038.9744,4095.3846,4073.8462,4350.2564,4091.2821,3209.2308,4007.6923
3712.3077,4098.9744,4030.7692,3398.4615,3741.5385,4034.8718,4094.359,4071.7949,4363.0769,4074.359,3131.7949,3985.641
3777.4359,4128.2051,4072.3077,3443.5897,3737.4359,4035.3846,4089.7436,4076.9231,4412.8205,4118.4615,3112.8205,4127.1795
3828.7179,4151.2821,4096.4103,3464.6154,3733.3333,4052.8205,4087.6923,4074.359,4438.9744,4149.7436,3105.1282,4210.2564
3842.0513,4161.0256,4100,3463.0769,3714.8718,4072.3077,4102.5641,4084.1026,4452.8205,4160.5128,3109.2308,4221.5385
3856.9231,4155.3846,4104.1026,3449.7436,3708.7179,4083.5897,4122.5641,4100,4490.7692,4171.7949,3115.3846,4263.5897
3858.4615,4155.8974,4105.641,3415.8974,3730.2564,4096.9231,4138.9744,4115.3846,4570.2564,4187.1795,3087.1795,4271.2821
3854.359,4159.4872,4115.3846,3420.5128,3772.3077,4114.359,4154.359,4128.2051,4639.4872,4197.9487,3075.8974,4262.5641
3838.9744,4141.5385,4114.359,3402.5641,3764.6154,4116.4103,4151.7949,4122.0513,4636.4103,4192.3077,3076.4103,4259.4872
3821.5385,4137.4359,4100,3353.3333,3734.359,4097.9487,4139.4872,4116.9231,4621.0256,4188.2051,3044.1026,4225.1282
3823.5897,4141.0256,4100,3368.7179,3771.7949,4091.2821,4146.1538,4130.2564,4622.0513,4186.6667,3043.0769,4203.5897
3795.8974,4128.7179,4097.9487,3385.641,3808.2051,4101.5385,4153.3333,4123.0769,4567.1795,4160.5128,3066.6667,4189.7436
3764.1026,4111.7949,4084.1026,3334.8718,3789.7436,4099.4872,4139.4872,4093.8462,4495.3846,4134.359,3064.1026,4148.2051
3791.7949,4112.3077,4085.641,3303.5897,3792.8205,4095.8974,4137.9487,4097.4359,4484.1026,4140,3091.2821,4123.0769
3822.0513,4125.641,4094.8718,3320,3820.5128,4107.6923,4154.359,4122.5641,4482.0513,4149.7436,3148.7179,4133.8462
3816.4103,4119.4872,4092.3077,3322.5641,3821.0256,4110.7692,4152.8205,4124.1026,4460,4146.1538,3170.7692,4123.0769
3805.1282,4110.7692,4090.7692,3306.1538,3803.0769,4098.4615,4144.1026,4114.359,4422.0513,4141.5385,3191.7949,4079.4872
3792.3077,4112.3077,4096.4103,3298.4615,3804.6154,4100.5128,4151.2821,4120.5128,4376.4103,4137.9487,3232.8205,4064.1026
3770.7692,4108.7179,4094.8718,3297.9487,3818.4615,4098.9744,4153.8462,4132.8205,4374.359,4140.5128,3208.2051,4071.7949
3743.5897,4105.1282,4090.2564,3271.2821,3782.5641,4074.8718,4142.0513,4127.6923,4385.1282,4149.2308,3169.2308,4061.0256
3730.7692,4099.4872,4095.8974,3218.9744,3748.2051,4078.9744,4141.0256,4112.8205,4321.5385,4146.1538,3244.1026,4047.1795
3761.0256,4109.7436,4105.1282,3203.5897,3807.1795,4106.1538,4155.3846,4122.0513,4259.4872,4129.2308,3355.3846,4061.5385
3797.4359,4125.1282,4102.5641,3208.7179,3857.4359,4102.0513,4159.4872,4144.6154,4263.5897,4118.9744,3402.0513,4079.4872
3782.0513,4110.2564,4101.5385,3178.9744,3822.0513,4083.5897,4149.7436,4151.7949,4266.6667,4121.0256,3434.359,4075.8974
3762.0513,4103.0769,4117.4359,3152.3077,3811.2821,4093.3333,4153.8462,4150.2564,4237.4359,4122.0513,3504.1026,4065.641
3775.3846,4107.6923,4124.1026,3151.7949,3837.4359,4106.6667,4156.9231,4141.0256,4213.3333,4120,3583.5897,4064.1026
3784.6154,4103.5897,4113.3333,3140,3828.2051,4091.7949,4143.0769,4125.1282,4203.5897,4116.4103,3632.8205,4068.7179
3779.4872,4103.0769,4107.1795,3121.5385,3822.5641,4075.8974,4134.359,4119.4872,4194.359,4106.6667,3647.1795,4066.1538
3777.4359,4100.5128,4103.0769,3116.9231,3833.8462,4075.8974,4136.9231,4117.9487,4177.4359,4097.4359,3646.1538,4058.9744
3783.0769,4102.5641,4096.9231,3123.0769,3845.1282,4080,4140,4115.3846,4175.3846,4102.5641,3627.6923,4051.2821
3790.7692,4100,4095.3846,3141.0256,3849.2308,4073.3333,4132.3077,4119.4872,4165.641,4111.2821,3594.359,4052.8205
3788.7179,4090.7692,4090.2564,3151.7949,3836.9231,4066.1538,4123.0769,4114.8718,4117.4359,4106.1538,3586.6667,4057.9487
3790.2564,4095.8974,4084.6154,3164.1026,3841.5385,4066.6667,4129.7436,4103.0769,4085.1282,4099.4872,3593.3333,4056.9231
3803.0769,4097.9487,4091.2821,3200,3851.2821,4054.8718,4135.8974,4106.6667,4104.1026,4114.359,3580.5128,4060
3803.5897,4091.7949,4094.8718,3226.6667,3844.1026,4052.8205,4129.2308,4113.3333,4113.8462,4123.0769,3556.4103,4061.0256
3792.8205,4081.0256,4083.5897,3235.8974,3846.1538,4076.4103,4129.7436,4105.641,4093.3333,4107.6923,3538.4615,4050.2564
3810.7692,4078.9744,4085.641,3273.8462,3868.7179,4073.8462,4135.8974,4107.1795,4097.4359,4109.2308,3548.7179,4058.9744
3850.7692,4089.2308,4104.6154,3327.6923,3875.8974,4037.4359,4132.3077,4126.6667,4119.4872,4136.4103,3580.5128,4086.6667
3866.1538,4080,4107.1795,3351.7949,3859.4872,4036.9231,4128.7179,4129.7436,4113.3333,4142.5641,3582.5641,4083.0769
3871.2821,4075.3846,4102.0513,3380,3865.1282,4058.9744,4134.359,4118.9744,4102.0513,4133.3333,3556.4103,4064.6154
3892.8205,4084.6154,4107.1795,3437.4359,3896.4103,4052.8205,4136.4103,4121.0256,4104.6154,4141.5385,3550.7692,4080
3905.1282,4084.6154,4104.1026,3479.4872,3906.1538,4042.0513,4131.2821,4127.1795,4091.2821,4144.6154,3553.8462,4096.9231
3894.359,4081.5385,4089.2308,3489.2308,3889.7436,4048.2051,4124.6154,4121.0256,4072.3077,4131.7949,3527.6923,4087.1795
3893.8462,4075.8974,4086.1538,3506.1538,3898.4615,4054.8718,4122.0513,4117.9487,4081.0256,4130.2564,3492.3077,4080.5128
3899.4872,4076.9231,4094.359,3537.9487,3922.5641,4055.3846,4127.6923,4121.5385,4085.1282,4139.4872,3471.2821,4083.5897
3899.4872,4081.0256,4093.3333,3563.0769,3922.0513,4056.9231,4134.359,4125.641,4072.8205,4141.0256,3467.1795,4088.2051
3906.6667,4076.9231,4087.6923,3583.0769,3917.9487,4057.9487,4134.359,4126.6667,4073.3333,4137.9487,3476.4103,4095.8974
3917.9487,4082.5641,4088.2051,3614.8718,3924.6154,4058.9744,4129.2308,4122.5641,4076.9231,4135.8974,3484.6154,4098.9744
3928.2051,4085.641,4096.9231,3647.1795,3933.3333,4057.9487,4123.0769,4119.4872,4080.5128,4137.9487,3495.8974,4105.1282
3936.9231,4084.1026,4101.0256,3673.8462,3936.9231,4049.7436,4122.5641,4125.641,4095.3846,4147.1795,3512.3077,4116.4103
3941.0256,4087.1795,4095.8974,3701.0256,3942.5641,4048.2051,4129.2308,4128.7179,4105.1282,4155.8974,3518.4615,4124.1026
3937.4359,4083.0769,4089.7436,3731.2821,3945.1282,4054.359,4130.7692,4123.0769,4108.2051,4152.8205,3514.8718,4118.4615
3928.2051,4080.5128,4082.5641,3775.3846,3942.5641,4058.9744,4124.6154,4121.5385,4112.3077,4144.6154,3516.4103,4104.6154
3922.0513,4074.359,4071.2821,3825.641,3942.0513,4060.5128,4126.1538,4124.1026,4097.4359,4139.4872,3516.4103,4097.4359
3924.6154,4072.3077,4072.8205,3862.0513,3944.6154,4058.4615,4131.7949,4122.5641,4074.359,4138.4615,3506.1538,4100.5128
3935.3846,4080,4085.1282,3883.0769,3941.5385,4060,4130.2564,4121.5385,4079.4872,4138.9744,3503.0769,4105.1282
3946.1538,4080.5128,4083.0769,3900.5128,3933.8462,4061.0256,4126.6667,4121.5385,4089.7436,4137.9487,3515.3846,4110.7692
3955.8974,4085.1282,4082.0513,3917.4359,3947.1795,4058.9744,4131.2821,4124.6154,4083.5897,4142.5641,3532.8205,4127.6923
3964.6154,4088.2051,4094.8718,3931.7949,3957.9487,4060,4133.3333,4129.7436,4079.4872,4151.7949,3538.9744,4141.0256
3967.6923,4087.6923,4097.4359,3945.1282,3946.6667,4062.5641,4124.6154,4127.1795,4080,4150.7692,3534.8718,4137.9487
3970.2564,4088.7179,4086.6667,3954.359,3951.2821,4064.1026,4122.0513,4120.5128,4076.4103,4147.6923,3538.4615,4135.3846
3974.359,4082.5641,4086.6667,3964.1026,3975.3846,4068.2051,4125.641,4119.4872,4070.7692,4150.2564,3548.7179,4138.9744
3977.4359,4086.1538,4094.359,3981.5385,3970.2564,4064.6154,4126.1538,4118.4615,4068.2051,4153.8462,3552.8205,4136.9231
3981.5385,4089.2308,4090.7692,3995.8974,3956.4103,4063.0769,4130.2564,4119.4872,4065.641,4154.8718,3557.4359,4138.4615
3984.6154,4081.5385,4083.0769,3995.8974,3973.3333,4073.8462,4132.8205,4121.5385,4050.7692,4153.3333,3564.6154,4146.1538
3980,4083.0769,4083.0769,3996.9231,3983.0769,4070.2564,4126.1538,4120.5128,4034.8718,4148.2051,3565.1282,4142.5641
3988.7179,4086.6667,4090.7692,4018.4615,3984.1026,4063.0769,4126.1538,4125.641,4042.0513,4157.9487,3578.9744,4145.641
4006.6667,4090.7692,4093.3333,4037.4359,3993.3333,4070.2564,4135.3846,4133.3333,4048.7179,4172.8205,3599.4872,4158.9744
4003.0769,4087.1795,4087.6923,4032.8205,3992.8205,4073.8462,4130.7692,4126.1538,4025.641,4163.5897,3597.9487,4155.3846
3995.3846,4080,4088.2051,4033.3333,3987.1795,4073.3333,4124.1026,4117.9487,4004.1026,4152.3077,3595.3846,4145.641
4008.7179,4086.1538,4094.359,4053.8462,3990.2564,4079.4872,4133.8462,4120.5128,4004.1026,4163.5897,3612.3077,4150.7692
4020,4085.641,4091.7949,4064.1026,3991.2821,4078.4615,4133.8462,4120,4004.1026,4170.7692,3628.7179,4156.9231
4024.6154,4085.1282,4091.2821,4063.0769,3992.8205,4072.8205,4128.2051,4118.4615,4001.5385,4167.6923,3641.5385,4172.8205
4041.0256,4088.2051,4101.0256,4078.4615,3992.8205,4082.0513,4135.3846,4121.5385,4007.1795,4175.8974,3658.4615,4201.0256
4054.8718,4086.1538,4101.0256,4093.8462,3984.1026,4089.2308,4135.8974,4122.5641,4014.8718,4181.0256,3669.7436,4207.6923
4056.4103,4091.7949,4091.2821,4094.359,3992.8205,4084.6154,4125.1282,4125.641,4016.9231,4171.7949,3678.4615,4204.1026
4057.9487,4090.2564,4091.7949,4098.9744,4014.359,4078.9744,4120.5128,4128.7179,4017.4359,4168.2051,3690.2564,4211.2821
4058.9744,4087.1795,4098.4615,4107.6923,4016.9231,4076.4103,4126.6667,4125.641,4013.3333,4173.8462,3694.8718,4207.6923
4057.4359,4086.6667,4096.9231,4113.3333,4015.8974,4075.3846,4126.1538,4120,4008.2051,4172.8205,3691.7949,4200
4052.8205,4083.0769,4090.2564,4116.4103,4025.641,4075.8974,4119.4872,4113.3333,4005.1282,4168.7179,3688.7179,4203.5897
4040.5128,4083.0769,4088.7179,4114.8718,4021.0256,4074.8718,4117.4359,4107.6923,3995.8974,4167.1795,3687.1795,4198.9744
4034.359,4077.4359,4090.7692,4114.359,4016.4103,4069.7436,4118.9744,4111.7949,3989.7436,4166.6667,3681.5385,4189.7436
4032.8205,4075.8974,4087.1795,4121.5385,4022.5641,4066.6667,4116.4103,4112.8205,3991.7949,4167.1795,3665.1282,4192.8205
4027.1795,4081.0256,4081.5385,4123.0769,4023.0769,4070.7692,4111.7949,4105.1282,3989.7436,4165.1282,3657.4359,4195.8974
4031.7949,4077.9487,4087.1795,4118.9744,4025.1282,4080,4114.8718,4112.3077,3991.7949,4169.7436,3682.0513,4201.5385
4039.4872,4083.0769,4088.7179,4122.5641,4023.0769,4083.0769,4121.0256,4118.4615,3999.4872,4169.2308,3707.1795,4211.2821
4033.8462,4086.1538,4076.9231,4123.5897,4027.6923,4080.5128,4121.5385,4109.7436,3993.3333,4157.4359,3710.7692,4211.7949
4022.5641,4077.9487,4073.8462,4122.5641,4043.0769,4082.0513,4116.4103,4107.6923,3977.4359,4150.7692,3708.2051,4200
4021.0256,4077.9487,4084.6154,4131.7949,4044.6154,4082.0513,4109.7436,4108.2051,3973.8462,4155.3846,3716.9231,4190.7692
4028.2051,4081.5385,4090.2564,4141.0256,4038.4615,4071.2821,4104.6154,4101.0256,3976.4103,4156.9231,3730.7692,4190.2564
4030.2564,4086.6667,4086.1538,4143.0769,4041.5385,4062.5641,4105.641,4102.0513,3973.8462,4151.7949,3734.359,4186.1538
4028.7179,4085.1282,4084.1026,4146.1538,4043.0769,4063.5897,4112.3077,4110.7692,3972.8205,4151.7949,3737.4359,4183.5897
4024.6154,4078.4615,4088.7179,4151.7949,4036.4103,4061.5385,4116.9231,4108.2051,3970.2564,4153.8462,3743.5897,4182.5641
4023.0769,4081.0256,4091.7949,4154.8718,4037.9487,4052.3077,4111.7949,4108.7179,3968.7179,4155.3846,3747.1795,4180.5128
4026.6667,4077.9487,4091.2821,4155.3846,4040,4046.6667,4106.6667,4114.359,3972.3077,4158.9744,3752.8205,4181.0256
4025.641,4076.4103,4091.7949,4155.8974,4034.8718,4050.7692,4109.7436,4111.7949,3975.3846,4159.4872,3761.0256,4177.9487
4020.5128,4076.4103,4090.2564,4160,4038.4615,4059.4872,4108.7179,4107.1795,3976.4103,4156.9231,3766.6667,4174.8718
4016.9231,4074.359,4087.1795,4167.6923,4046.1538,4058.9744,4103.5897,4105.641,3973.8462,4153.8462,3773.8462,4173.8462
4016.4103,4077.4359,4085.1282,4171.7949,4033.8462,4054.8718,4104.1026,4109.7436,3965.641,4154.359,3783.0769,4170.2564
4016.4103,4073.3333,4078.9744,4167.6923,4025.1282,4065.1282,4108.2051,4109.2308,3962.0513,4150.2564,3788.7179,4168.2051
4017.9487,4078.9744,4079.4872,4170.2564,4047.1795,4068.7179,4109.7436,4104.1026,3973.3333,4150.2564,3798.9744,4177.4359
4027.6923,4087.6923,4089.7436,4184.6154,4067.1795,4056.4103,4106.6667,4111.2821,3979.4872,4163.5897,3820.5128,4183.5897
4036.4103,4081.5385,4095.3846,4192.8205,4057.4359,4052.8205,4104.6154,4118.9744,3976.4103,4170.7692,3828.2051,4176.9231
4031.2821,4075.3846,4090.7692,4188.7179,4044.1026,4056.9231,4107.1795,4114.359,3971.7949,4161.5385,3816.9231,4168.2051
4021.0256,4071.7949,4086.6667,4187.1795,4046.6667,4058.9744,4106.6667,4113.3333,3961.5385,4156.4103,3817.4359,4165.1282
4029.7436,4082.0513,4092.8205,4197.9487,4056.9231,4068.7179,4108.2051,4121.5385,3957.4359,4170.2564,3835.3846,4175.3846
4043.5897,4086.1538,4100.5128,4205.641,4054.8718,4076.9231,4113.3333,4119.4872,3960.5128,4176.4103,3844.6154,4185.641
4031.7949,4071.2821,4091.7949,4200.5128,4034.8718,4062.5641,4108.2051,4105.1282,3947.1795,4158.9744,3831.7949,4168.2051
4017.4359,4069.2308,4084.1026,4195.3846,4036.9231,4050.2564,4104.6154,4106.1538,3933.3333,4145.1282,3822.0513,4145.1282
4031.7949,4076.9231,4092.3077,4205.641,4066.1538,4065.641,4113.3333,4127.1795,3948.7179,4156.4103,3843.0769,4154.8718
4045.1282,4080,4099.4872,4217.4359,4072.3077,4077.9487,4122.0513,4138.4615,3966.1538,4168.2051,3863.5897,4172.8205
4035.8974,4076.9231,4092.3077,4214.8718,4054.8718,4071.7949,4120.5128,4126.6667,3961.0256,4160,3862.5641,4165.641
4032.3077,4073.8462,4087.1795,4210.7692,4053.8462,4067.1795,4114.359,4116.9231,3954.359,4154.359,3867.6923,4160
4037.9487,4077.9487,4090.7692,4217.9487,4060.5128,4072.3077,4108.7179,4122.0513,3950.2564,4158.4615,3877.4359,4164.6154
4034.8718,4072.8205,4087.1795,4217.4359,4052.8205,4079.4872,4103.0769,4119.4872,3942.0513,4156.9231,3873.8462,4163.5897
4033.3333,4072.3077,4083.5897,4212.8205,4058.4615,4073.3333,4102.5641,4110.2564,3942.5641,4158.4615,3875.3846,4160.5128
4042.5641,4084.6154,4093.3333,4222.0513,4071.7949,4060.5128,4107.1795,4113.8462,3955.3846,4172.8205,3893.3333,4167.1795
4050.7692,4081.0256,4097.9487,4235.8974,4058.4615,4058.4615,4107.1795,4120,3963.0769,4181.0256,3910.2564,4175.3846
4041.0256,4077.4359,4086.1538,4229.7436,4049.2308,4064.6154,4105.641,4111.7949,3957.9487,4172.8205,3912.8205,4169.7436
4029.2308,4075.8974,4080,4217.9487,4073.3333,4068.7179,4107.1795,4104.6154,3955.8974,4167.1795,3912.8205,4161.0256
4034.359,4074.359,4091.2821,4226.1538,4088.7179,4069.7436,4110.2564,4114.359,3963.5897,4173.8462,3925.1282,4164.6154
4038.9744,4077.9487,4092.3077,4234.359,4078.9744,4080,4110.2564,4123.0769,3965.1282,4174.359,3933.3333,4169.2308
4037.9487,4073.8462,4087.6923,4228.2051,4076.9231,4087.6923,4106.6667,4118.4615,3962.0513,4167.6923,3934.359,4170.2564
4045.641,4078.4615,4101.0256,4230.7692,4077.4359,4074.8718,4106.6667,4120,3970.2564,4173.3333,3944.6154,4179.4872
4053.3333,4084.1026,4111.7949,4243.5897,4077.4359,4059.4872,4114.359,4127.6923,3977.9487,4185.641,3958.4615,4192.8205
4050.7692,4079.4872,4102.5641,4247.1795,4078.4615,4060.5128,4113.3333,4126.6667,3975.8974,4183.5897,3958.9744,4190.2564
4043.0769,4078.4615,4095.3846,4245.1282,4067.1795,4064.6154,4102.0513,4117.9487,3972.8205,4172.3077,3952.3077,4180
4042.5641,4075.8974,4098.9744,4245.1282,4062.0513,4061.5385,4101.0256,4116.9231,3971.7949,4168.2051,3952.8205,4180.5128
4041.5385,4076.4103,4100,4244.6154,4071.7949,4067.6923,4110.2564,4123.5897,3972.8205,4168.7179,3957.4359,4183.0769
4040.5128,4076.4103,4098.4615,4246.1538,4080,4079.4872,4109.2308,4120,3976.4103,4170.2564,3963.5897,4182.5641
4041.5385,4075.3846,4097.4359,4247.1795,4079.4872,4080.5128,4100,4108.2051,3968.7179,4172.3077,3968.2051,4183.5897
4037.9487,4077.9487,4091.2821,4244.6154,4067.6923,4069.2308,4099.4872,4105.1282,3958.9744,4164.6154,3969.7436,4177.4359
4036.4103,4073.8462,4090.2564,4243.5897,4065.1282,4060.5128,4098.4615,4107.6923,3963.5897,4160,3974.8718,4175.3846
4038.9744,4074.359,4094.359,4246.6667,4073.8462,4059.4872,4094.359,4107.6923,3966.1538,4165.641,3982.0513,4181.5385
4037.4359,4075.3846,4090.7692,4247.1795,4064.1026,4054.8718,4096.4103,4110.2564,3958.4615,4164.1026,3980.5128,4177.4359
4035.3846,4071.7949,4090.7692,4247.1795,4052.3077,4058.4615,4104.1026,4114.8718,3955.3846,4156.4103,3974.8718,4172.3077
4035.8974,4073.8462,4091.7949,4247.1795,4069.7436,4070.7692,4109.7436,4112.8205,3959.4872,4156.9231,3977.9487,4176.4103
4030.7692,4069.2308,4078.9744,4242.5641,4084.6154,4076.4103,4104.1026,4105.1282,3955.8974,4157.4359,3986.6667,4176.9231
4029.2308,4074.359,4074.8718,4245.1282,4081.0256,4078.4615,4095.3846,4100.5128,3953.3333,4153.3333,3992.8205,4175.8974
4043.5897,4084.1026,4089.7436,4258.9744,4084.1026,4076.9231,4096.4103,4105.1282,3962.5641,4162.0513,4001.0256,4188.2051
4049.7436,4076.9231,4094.359,4262.5641,4088.2051,4065.1282,4101.0256,4107.1795,3973.8462,4173.3333,4006.1538,4192.8205
4036.9231,4074.8718,4085.1282,4252.3077,4085.641,4064.1026,4100.5128,4102.5641,3975.8974,4164.6154,4003.0769,4185.1282
4033.8462,4077.9487,4084.1026,4252.3077,4088.2051,4080,4103.0769,4109.7436,3969.7436,4154.359,4004.6154,4187.6923
4041.5385,4080,4090.2564,4263.5897,4083.5897,4075.8974,4109.2308,4117.4359,3961.0256,4163.0769,4013.3333,4194.8718
4044.6154,4080.5128,4096.9231,4271.7949,4080,4056.9231,4107.6923,4112.3077,3956.4103,4158.9744,4020,4197.9487
4053.3333,4081.0256,4107.1795,4278.9744,4086.6667,4054.8718,4106.1538,4114.8718,3957.4359,4129.2308,4030.7692,4203.5897
4056.9231,4083.0769,4105.641,4283.5897,4073.3333,4060.5128,4108.7179,4128.2051,3948.7179,4103.5897,4034.8718,4202.0513
4035.8974,4072.3077,4084.6154,4271.7949,4064.6154,4065.641,4108.2051,4122.5641,3924.6154,4093.8462,4020,4184.6154
4023.5897,4071.7949,4073.8462,4263.0769,4092.8205,4077.4359,4109.2308,4106.6667,3917.4359,4095.3846,4018.4615,4179.4872
4042.5641,4086.1538,4085.641,4272.8205,4112.3077,4085.641,4111.7949,4112.8205,3935.8974,4105.1282,4042.5641,4194.359
4052.8205,4080.5128,4091.2821,4278.4615,4094.359,4076.4103,4106.6667,4122.5641,3944.1026,4109.2308,4051.2821,4200
4043.5897,4078.4615,4088.2051,4275.3846,4087.6923,4062.5641,4102.0513,4121.0256,3944.6154,4110.7692,4044.6154,4193.3333
4048.2051,4084.1026,4092.8205,4278.4615,4107.6923,4062.5641,4105.641,4122.0513,3961.0256,4122.5641,4056.9231,4201.5385
4057.4359,4079.4872,4097.4359,4282.0513,4112.3077,4069.7436,4110.7692,4129.2308,3970.2564,4124.1026,4070.2564,4207.6923
4046.6667,4075.3846,4091.2821,4271.2821,4094.8718,4074.8718,4113.3333,4125.641,3957.9487,4108.7179,4058.4615,4193.8462
4033.3333,4071.2821,4086.6667,4260.5128,4073.3333,4071.2821,4111.2821,4113.3333,3950.2564,4101.5385,4049.2308,4201.0256
4036.4103,4075.8974,4091.7949,4266.6667,4080.5128,4058.4615,4110.7692,4117.4359,3957.9487,4110.7692,4059.4872,4238.9744
4044.6154,4077.4359,4097.9487,4274.8718,4103.5897,4053.3333,4113.8462,4134.8718,3960.5128,4117.4359,4066.6667,4258.4615
4037.9487,4069.7436,4090.7692,4269.7436,4098.9744,4060.5128,4114.359,4132.3077,3947.6923,4104.6154,4052.8205,4238.4615
4026.6667,4071.7949,4080.5128,4262.5641,4083.5897,4060,4112.3077,4113.3333,3934.359,4093.3333,4043.0769,4225.1282
4034.8718,4073.3333,4087.1795,4264.1026,4090.7692,4053.8462,4111.2821,4113.3333,3943.5897,4106.1538,4061.5385,4243.5897
4046.1538,4074.359,4097.4359,4268.7179,4102.0513,4063.5897,4115.3846,4121.0256,3956.4103,4116.9231,4075.3846,4253.8462
4042.5641,4074.8718,4093.3333,4273.3333,4104.6154,4075.8974,4116.4103,4116.4103,3954.8718,4106.6667,4067.6923,4236.9231
4040.5128,4076.9231,4089.2308,4276.4103,4112.8205,4068.2051,4107.6923,4116.4103,3960,4110.2564,4072.3077,4231.7949
4044.1026,4084.1026,4093.3333,4275.8974,4111.7949,4061.5385,4106.1538,4124.1026,3968.2051,4123.5897,4087.6923,4243.5897
4041.5385,4077.9487,4090.7692,4271.7949,4096.4103,4074.8718,4114.8718,4118.9744,3961.5385,4114.359,4082.5641,4236.4103
4035.8974,4075.3846,4087.1795,4271.7949,4090.2564,4073.8462,4113.8462,4107.1795,3951.2821,4101.5385,4068.2051,4217.4359
4042.0513,4082.0513,4096.9231,4277.4359,4106.1538,4054.359,4103.0769,4108.2051,3960,4112.8205,4078.9744,4223.0769
4050.7692,4081.0256,4102.5641,4280.5128,4119.4872,4053.3333,4103.5897,4112.3077,3973.3333,4126.1538,4094.8718,4236.9231
4047.1795,4083.5897,4098.4615,4278.9744,4109.7436,4062.0513,4108.7179,4110.7692,3974.8718,4121.5385,4093.3333,4229.2308
4046.1538,4082.5641,4101.0256,4280.5128,4108.7179,4057.4359,4105.1282,4109.7436,3973.3333,4117.9487,4095.8974,4224.1026
4049.7436,4081.0256,4105.641,4282.0513,4112.8205,4058.4615,4102.5641,4109.7436,3971.7949,4118.4615,4104.6154,4227.6923
4053.8462,4083.5897,4104.1026,4283.0769,4100.5128,4065.1282,4104.6154,4114.8718,3977.4359,4123.0769,4111.2821,4231.2821
4060,4083.5897,4107.6923,4292.3077,4107.6923,4066.6667,4107.1795,4121.0256,3984.6154,4130.2564,4120,4234.8718
4057.9487,4083.5897,4109.2308,4291.7949,4127.6923,4073.8462,4109.7436,4116.4103,3980.5128,4128.7179,4122.5641,4225.1282
4051.2821,4075.3846,4099.4872,4283.5897,4115.8974,4075.3846,4108.2051,4112.8205,3977.9487,4125.1282,4120,4211.2821
4053.8462,4077.9487,4098.4615,4290.2564,4102.0513,4061.5385,4103.0769,4122.0513,3984.6154,4132.3077,4128.7179,4211.2821
4058.4615,4085.641,4104.1026,4298.9744,4121.5385,4057.4359,4102.5641,4125.641,3990.7692,4137.4359,4136.9231,4217.9487
4058.9744,4075.3846,4107.1795,4291.7949,4131.7949,4066.6667,4107.1795,4116.9231,3996.4103,4137.4359,4136.4103,4219.4872
4058.4615,4074.359,4108.7179,4288.2051,4112.8205,4065.641,4107.6923,4117.4359,4005.641,4139.4872,4137.9487,4214.8718
4056.4103,4080.5128,4107.1795,4290.7692,4114.359,4064.1026,4104.6154,4124.6154,4004.1026,4138.4615,4139.4872,4206.1538
4055.8974,4080,4107.6923,4285.641,4126.1538,4074.359,4105.1282,4123.5897,3998.4615,4135.8974,4138.4615,4203.0769
4053.8462,4075.3846,4103.0769,4276.9231,4104.1026,4076.4103,4107.1795,4121.0256,3995.8974,4131.2821,4134.8718,4201.5385
4051.2821,4072.3077,4097.4359,4274.359,4088.2051,4063.5897,4106.1538,4127.6923,4000,4127.6923,4134.359,4197.4359
4053.8462,4083.5897,4103.0769,4282.5641,4115.3846,4054.8718,4106.1538,4140.5128,4013.3333,4135.8974,4140,4198.4615
4058.4615,4086.6667,4106.6667,4291.2821,4133.3333,4057.9487,4106.6667,4145.641,4016.4103,4137.9487,4144.1026,4198.4615
4057.9487,4079.4872,4096.4103,4289.7436,4120.5128,4064.6154,4106.1538,4136.9231,4010.7692,4116.4103,4146.6667,4191.2821
4055.3846,4081.0256,4090.7692,4281.0256,4116.9231,4073.8462,4106.6667,4128.2051,4014.359,4101.5385,4150.7692,4188.7179
4056.4103,4076.9231,4093.3333,4278.4615,4120.5128,4079.4872,4106.1538,4127.1795,4020,4107.6923,4151.7949,4190.2564
4058.4615,4079.4872,4093.3333,4288.7179,4116.4103,4075.3846,4107.6923,4132.8205,4019.4872,4107.1795,4149.2308,4189.7436
4063.0769,4083.5897,4093.3333,4294.359,4117.4359,4068.7179,4107.1795,4136.9231,4021.0256,4094.8718,4153.3333,4189.7436
4062.5641,4078.9744,4092.8205,4284.1026,4124.1026,4068.2051,4098.9744,4136.4103,4021.0256,4090.7692,4154.8718,4186.6667
4061.0256,4078.4615,4092.3077,4276.4103,4121.0256,4068.7179,4098.4615,4135.8974,4021.5385,4098.9744,4154.8718,4185.641
4062.5641,4075.3846,4093.3333,4281.0256,4105.641,4064.1026,4098.9744,4130.2564,4020.5128,4100.5128,4156.9231,4188.2051
4054.8718,4076.9231,4090.2564,4278.9744,4098.9744,4060.5128,4088.2051,4120.5128,4010.2564,4088.7179,4151.2821,4181.0256
4055.8974,4081.0256,4094.359,4278.9744,4119.4872,4063.5897,4084.6154,4120.5128,4013.8462,4091.2821,4158.4615,4177.9487
4065.641,4078.4615,4104.1026,4290.2564,4133.3333,4069.7436,4093.3333,4124.6154,4023.5897,4105.1282,4172.8205,4185.1282
4067.6923,4081.5385,4105.641,4292.3077,4118.4615,4072.3077,4095.8974,4122.5641,4014.8718,4106.6667,4167.1795,4186.6667
4083.0769,4084.1026,4104.1026,4286.6667,4113.3333,4075.3846,4090.7692,4116.9231,4009.2308,4105.1282,4165.641,4192.3077
4117.9487,4092.8205,4108.2051,4292.8205,4121.0256,4072.3077,4087.6923,4121.0256,4014.359,4107.1795,4176.9231,4208.7179
4152.3077,4103.0769,4116.9231,4309.7436,4122.5641,4062.5641,4085.1282,4124.6154,4016.4103,4109.2308,4182.5641,4227.6923
4185.641,4108.2051,4131.2821,4323.0769,4129.7436,4060.5128,4085.1282,4114.359,4017.9487,4121.5385,4194.8718,4253.8462
4216.9231,4116.4103,4150.7692,4333.3333,4130.2564,4054.359,4086.1538,4105.641,4027.1795,4140,4214.8718,4276.4103
4230.2564,4111.7949,4157.4359,4341.5385,4128.7179,4045.1282,4080,4111.7949,4040.5128,4143.5897,4229.2308,4282.5641
4221.0256,4105.641,4148.2051,4336.9231,4133.8462,4056.4103,4074.359,4113.8462,4041.5385,4131.7949,4229.7436,4276.9231
4201.5385,4101.5385,4137.4359,4326.6667,4130.2564,4071.2821,4078.9744,4102.5641,4027.6923,4124.1026,4221.5385,4258.4615
4185.641,4093.3333,4132.3077,4323.0769,4123.5897,4057.9487,4084.6154,4103.0769,4025.641,4126.6667,4218.9744,4237.4359
4168.7179,4094.8718,4128.2051,4320,4132.3077,4052.8205,4084.6154,4112.8205,4030.2564,4123.5897,4220,4232.8205
4140.5128,4085.1282,4114.359,4310.7692,4139.4872,4081.0256,4086.1538,4106.1538,4012.3077,4103.5897,4207.1795,4221.5385
4124.6154,4079.4872,4106.6667,4306.6667,4132.8205,4081.5385,4091.2821,4102.5641,4001.5385,4096.9231,4193.3333,4197.9487
4132.3077,4086.6667,4118.4615,4311.2821,4127.6923,4048.7179,4091.2821,4120,4019.4872,4114.8718,4200.5128,4198.4615
4126.6667,4082.0513,4123.0769,4310.7692,4126.6667,4043.5897,4090.7692,4129.2308,4022.0513,4117.9487,4205.641,4203.5897
4107.6923,4080.5128,4109.7436,4300.5128,4127.6923,4065.641,4093.3333,4118.9744,4002.0513,4103.0769,4196.9231,4185.641
4104.6154,4082.5641,4103.0769,4293.3333,4130.2564,4075.8974,4090.2564,4116.9231,3998.9744,4103.5897,4194.8718,4175.3846
4107.1795,4083.0769,4107.6923,4295.8974,4130.2564,4076.4103,4089.2308,4125.1282,4016.9231,4111.7949,4204.6154,4181.5385
4104.6154,4087.6923,4113.8462,4296.9231,4134.8718,4073.3333,4098.4615,4125.1282,4030.2564,4112.8205,4212.3077,4180
4106.1538,4086.6667,4118.4615,4293.8462,4149.7436,4067.6923,4100.5128,4123.5897,4028.2051,4116.4103,4212.3077,4173.3333
4102.5641,4084.1026,4114.8718,4293.3333,4150.7692,4071.2821,4093.8462,4123.5897,4027.1795,4121.5385,4211.2821,4167.6923
4094.359,4081.5385,4109.7436,4294.359,4145.1282,4074.359,4095.3846,4123.5897,4037.4359,4121.0256,4214.359,4162.5641
4091.7949,4083.0769,4110.7692,4295.3846,4145.1282,4060.5128,4100,4118.4615,4036.9231,4116.9231,4213.8462,4157.9487
4087.6923,4086.1538,4108.2051,4289.2308,4131.2821,4043.5897,4093.8462,4110.7692,4023.5897,4111.2821,4203.5897,4149.7436
4084.6154,4079.4872,4110.7692,4279.4872,4127.6923,4046.1538,4086.6667,4111.2821,4021.5385,4107.6923,4200.5128,4144.6154
4085.1282,4081.0256,4121.5385,4277.9487,4153.3333,4056.4103,4093.3333,4115.3846,4025.641,4106.6667,4205.641,4141.5385
4082.5641,4083.5897,4120.5128,4276.4103,4167.6923,4055.3846,4097.9487,4115.8974,4023.5897,4105.641,4208.2051,4137.9487
4078.9744,4081.0256,4114.359,4268.7179,4153.8462,4052.8205,4092.8205,4115.8974,4025.641,4107.6923,4211.7949,4139.4872
4073.3333,4082.0513,4110.2564,4257.9487,4150.7692,4056.9231,4095.3846,4112.3077,4030.2564,4104.6154,4213.8462,4136.4103
4065.641,4076.9231,4102.5641,4246.1538,4156.9231,4066.1538,4096.9231,4107.1795,4029.2308,4092.8205,4209.7436,4126.6667
4067.6923,4078.4615,4103.5897,4242.0513,4150.7692,4066.6667,4091.2821,4114.359,4034.8718,4094.359,4210.7692,4127.6923
4075.8974,4082.5641,4109.7436,4249.7436,4150.7692,4055.8974,4096.9231,4128.2051,4049.2308,4107.6923,4221.0256,4136.9231
4065.1282,4076.4103,4098.9744,4248.7179,4154.359,4058.9744,4105.641,4127.1795,4040.5128,4096.4103,4212.3077,4125.1282
4041.5385,4073.3333,4079.4872,4231.2821,4150.2564,4075.3846,4098.9744,4113.8462,4016.9231,4068.2051,4186.1538,4094.8718
4042.5641,4074.8718,4081.0256,4227.6923,4155.3846,4072.8205,4095.8974,4113.3333,4023.5897,4072.8205,4187.6923,4091.2821
4057.4359,4082.0513,4095.3846,4238.9744,4152.8205,4057.9487,4103.0769,4118.9744,4036.9231,4089.2308,4203.5897,4109.2308
4054.359,4083.0769,4091.7949,4238.9744,4141.0256,4068.7179,4098.9744,4111.7949,4025.1282,4081.0256,4201.5385,4108.7179
4047.6923,4078.4615,4083.5897,4232.8205,4154.359,4090.7692,4091.7949,4100.5128,4017.4359,4074.359,4198.9744,4099.4872
4057.4359,4086.1538,4095.8974,4242.5641,4171.2821,4087.6923,4094.8718,4102.5641,4027.6923,4088.7179,4212.3077,4107.6923
4074.359,4088.7179,4110.2564,4258.4615,4162.5641,4068.2051,4095.8974,4112.3077,4036.4103,4103.5897,4226.6667,4127.6923
4078.4615,4086.6667,4110.2564,4262.0513,4158.9744,4061.5385,4095.8974,4115.8974,4042.5641,4107.6923,4230.2564,4132.8205
4073.3333,4089.2308,4106.1538,4261.0256,4168.7179,4072.8205,4096.4103,4110.2564,4047.6923,4108.2051,4233.3333,4126.1538
4070.7692,4085.1282,4106.1538,4261.5385,4162.5641,4075.3846,4090.2564,4106.1538,4042.5641,4106.1538,4233.3333,4124.1026
4069.7436,4085.1282,4107.6923,4260,4145.1282,4063.0769,4086.1538,4111.2821,4041.5385,4107.6923,4231.7949,4123.0769
4065.641,4081.5385,4102.5641,4252.3077,4144.1026,4062.5641,4087.1795,4111.7949,4045.1282,4109.2308,4232.8205,4114.359
4058.4615,4080.5128,4091.7949,4247.1795,4151.2821,4075.3846,4086.6667,4105.1282,4044.1026,4104.6154,4230.7692,4106.6667
4058.9744,4087.6923,4090.7692,4252.3077,4146.1538,4078.9744,4085.1282,4105.1282,4042.5641,4104.6154,4231.2821,4109.2308
4065.1282,4085.641,4097.4359,4257.9487,4145.1282,4070.7692,4087.6923,4106.1538,4044.1026,4106.1538,4237.9487,4115.8974
4064.1026,4089.7436,4095.8974,4260.5128,4164.6154,4065.641,4092.3077,4106.6667,4054.8718,4108.2051,4245.641,4116.4103
4062.5641,4090.7692,4092.3077,4260,4174.359,4069.2308,4091.7949,4107.6923,4061.0256,4107.1795,4248.2051,4114.8718
4064.6154,4086.1538,4091.7949,4260.5128,4161.0256,4075.8974,4089.7436,4106.1538,4050.2564,4099.4872,4245.1282,4114.359
4066.1538,4086.1538,4090.7692,4258.9744,4156.4103,4081.5385,4093.3333,4106.1538,4048.2051,4096.4103,4245.641,4114.359
4063.0769,4082.5641,4091.2821,4251.7949,4155.8974,4078.9744,4094.359,4109.2308,4061.5385,4100,4248.7179,4115.3846
4060.5128,4084.6154,4091.2821,4248.7179,4147.6923,4073.3333,4092.8205,4113.8462,4058.4615,4096.9231,4242.5641,4110.7692
4066.1538,4085.641,4090.2564,4251.7949,4151.7949,4075.8974,4099.4872,4121.0256,4049.2308,4096.9231,4239.4872,4110.2564
4071.2821,4084.1026,4093.8462,4249.7436,4161.5385,4085.1282,4106.1538,4123.5897,4053.8462,4106.6667,4245.641,4116.4103
4071.7949,4088.7179,4093.3333,4247.1795,4150.2564,4091.7949,4103.0769,4119.4872,4054.359,4105.1282,4244.1026,4117.9487
4080,4092.3077,4089.2308,4255.3846,4136.9231,4088.7179,4104.6154,4124.1026,4057.4359,4105.641,4245.641,4123.5897
4093.3333,4097.9487,4095.3846,4264.1026,4148.7179,4078.4615,4111.7949,4133.8462,4070.7692,4122.5641,4264.1026,4137.4359
4096.4103,4094.8718,4099.4872,4263.0769,4162.0513,4080,4109.7436,4134.8718,4075.3846,4128.7179,4269.7436,4141.0256
4086.6667,4090.2564,4091.7949,4258.4615,4154.359,4085.641,4102.0513,4124.1026,4065.641,4115.3846,4256.4103,4128.2051
4077.9487,4093.8462,4084.6154,4252.8205,4147.1795,4072.8205,4097.4359,4116.9231,4055.8974,4106.6667,4242.0513,4116.4103
4076.9231,4089.7436,4082.0513,4249.2308,4153.8462,4066.6667,4095.3846,4118.4615,4055.8974,4107.6923,4237.4359,4115.8974
4074.359,4088.2051,4080.5128,4249.2308,4152.8205,4078.9744,4095.8974,4118.4615,4061.0256,4110.2564,4240,4115.8974
4066.6667,4087.6923,4076.4103,4247.6923,4144.6154,4085.641,4092.3077,4109.2308,4054.8718,4107.6923,4237.9487,4109.7436
4066.6667,4085.641,4076.9231,4245.641,4144.6154,4081.5385,4086.1538,4102.0513,4042.5641,4103.0769,4228.7179,4102.5641
4069.2308,4091.2821,4085.641,4244.6154,4143.0769,4066.1538,4087.1795,4106.6667,4051.7949,4105.641,4227.6923,4104.1026
4068.7179,4088.2051,4087.1795,4243.5897,4141.5385,4061.5385,4088.7179,4111.2821,4062.0513,4109.2308,4237.4359,4108.2051
4071.7949,4086.1538,4080.5128,4249.7436,4143.5897,4079.4872,4088.2051,4110.2564,4055.3846,4108.7179,4237.9487,4106.1538
4073.8462,4087.6923,4083.5897,4258.4615,4153.8462,4083.5897,4095.3846,4111.2821,4056.9231,4109.7436,4234.359,4109.2308
4068.2051,4084.6154,4089.7436,4258.9744,4156.9231,4075.8974,4100,4112.8205,4066.1538,4107.6923,4236.4103,4111.2821
4070.2564,4089.7436,4093.3333,4258.9744,4139.4872,4091.2821,4097.4359,4109.2308,4063.5897,4106.6667,4237.9487,4107.6923
4086.1538,4089.7436,4103.0769,4265.641,4137.4359,4097.4359,4091.2821,4108.2051,4063.5897,4119.4872,4247.1795,4117.4359
4084.6154,4084.1026,4104.1026,4258.9744,4154.359,4078.4615,4085.1282,4108.2051,4068.2051,4120,4248.7179,4123.5897
4071.7949,4085.1282,4090.2564,4245.641,4154.8718,4081.0256,4090.2564,4106.1538,4062.5641,4105.1282,4236.9231,4111.2821
4079.4872,4089.7436,4089.7436,4253.8462,4149.2308,4092.8205,4099.4872,4112.3077,4061.5385,4112.3077,4240,4110.2564
4092.8205,4092.3077,4099.4872,4266.1538,4154.359,4079.4872,4100.5128,4122.5641,4072.8205,4128.2051,4251.2821,4124.6154
4093.3333,4085.1282,4102.5641,4261.0256,4148.7179,4074.8718,4100,4122.0513,4077.4359,4127.1795,4252.8205,4129.7436
4091.7949,4092.8205,4105.1282,4264.1026,4142.0513,4087.1795,4100.5128,4120,4077.4359,4130.7692,4251.7949,4130.2564
4095.3846,4101.0256,4109.2308,4274.8718,4150.7692,4088.2051,4102.0513,4123.5897,4077.4359,4140.5128,4253.8462,4133.8462
4093.3333,4088.7179,4106.6667,4268.7179,4149.2308,4085.641,4103.5897,4121.5385,4074.8718,4131.7949,4250.7692,4127.1795
4087.6923,4089.2308,4104.1026,4261.0256,4135.3846,4084.6154,4104.1026,4118.9744,4069.7436,4122.0513,4244.6154,4118.9744
4087.1795,4092.8205,4104.6154,4265.1282,4137.9487,4084.1026,4101.5385,4121.5385,4067.6923,4126.1538,4238.9744,4120.5128
4087.6923,4089.7436,4105.641,4265.1282,4144.1026,4091.7949,4103.5897,4120.5128,4069.7436,4128.2051,4240,4122.5641
4088.7179,4093.3333,4107.1795,4261.0256,4134.359,4093.3333,4106.1538,4120,4070.7692,4126.1538,4246.6667,4119.4872
4088.2051,4091.2821,4104.6154,4260,4135.3846,4087.1795,4099.4872,4114.8718,4064.6154,4122.5641,4243.0769,4115.3846
4088.2051,4092.8205,4104.1026,4260.5128,4156.4103,4088.7179,4100,4109.7436,4068.7179,4121.5385,4242.0513,4117.4359
4094.359,4094.359,4113.8462,4263.0769,4165.641,4087.6923,4104.6154,4117.4359,4082.5641,4126.6667,4257.9487,4125.1282
4100.5128,4089.7436,4119.4872,4263.5897,4152.8205,4074.8718,4102.0513,4122.5641,4081.5385,4127.6923,4262.0513,4129.2308
4097.4359,4091.2821,4113.8462,4260,4148.2051,4071.7949,4101.5385,4116.9231,4073.3333,4123.0769,4249.7436,4134.359
4093.3333,4090.7692,4109.2308,4258.9744,4156.4103,4070.7692,4101.0256,4117.9487,4075.3846,4122.5641,4245.1282,4142.0513
4090.7692,4091.2821,4106.1538,4259.4872,4159.4872,4075.8974,4093.8462,4116.9231,4073.8462,4121.0256,4245.1282,4138.4615
4097.4359,4094.8718,4111.2821,4262.5641,4158.9744,4093.3333,4091.2821,4107.1795,4074.359,4120.5128,4247.6923,4134.8718
4108.7179,4096.9231,4123.5897,4267.1795,4157.4359,4084.1026,4102.0513,4111.2821,4088.2051,4127.6923,4257.9487,4147.1795
4105.1282,4095.3846,4119.4872,4263.0769,4154.359,4064.6154,4110.2564,4122.0513,4094.359,4128.2051,4260.5128,4148.7179
4091.7949,4085.1282,4103.5897,4253.8462,4155.3846,4073.8462,4107.6923,4121.0256,4082.5641,4120,4251.7949,4134.8718
4087.6923,4086.1538,4104.1026,4256.4103,4158.9744,4081.5385,4104.6154,4112.3077,4080,4116.4103,4246.6667,4129.7436
4093.8462,4092.3077,4112.3077,4265.1282,4158.9744,4073.3333,4102.0513,4112.8205,4092.8205,4121.0256,4248.7179,4134.359
4100,4091.7949,4109.7436,4261.0256,4154.359,4076.4103,4106.6667,4122.0513,4094.8718,4121.5385,4253.8462,4134.359
4103.0769,4093.8462,4111.7949,4257.4359,4155.8974,4083.0769,4114.359,4128.2051,4089.2308,4123.5897,4257.4359,4135.8974
4105.641,4091.7949,4121.0256,4265.641,4156.9231,4085.1282,4113.3333,4123.0769,4090.7692,4130.7692,4258.4615,4142.5641
4105.641,4093.8462,4116.4103,4268.7179,4146.1538,4082.5641,4105.641,4114.8718,4088.2051,4130.2564,4254.8718,4137.9487
4107.1795,4095.8974,4110.7692,4263.0769,4148.7179,4072.8205,4102.5641,4118.9744,4082.5641,4124.1026,4252.3077,4134.359
4111.2821,4092.3077,4116.4103,4261.5385,4166.1538,4077.4359,4106.6667,4118.9744,4086.6667,4124.6154,4258.9744,4141.5385
4111.2821,4094.8718,4116.4103,4264.6154,4165.641,4089.7436,4108.2051,4113.3333,4092.3077,4126.6667,4261.5385,4141.5385
4103.5897,4092.8205,4104.6154,4263.0769,4157.9487,4088.2051,4105.1282,4116.4103,4090.2564,4122.0513,4253.8462,4127.1795
4101.5385,4092.8205,4104.1026,4258.9744,4166.6667,4088.2051,4108.7179,4125.1282,4090.2564,4120.5128,4250.7692,4121.5385
4109.7436,4095.3846,4110.2564,4262.5641,4171.2821,4091.7949,4114.359,4125.641,4094.8718,4123.5897,4258.4615,4131.2821
4108.2051,4090.2564,4105.641,4259.4872,4160.5128,4091.7949,4113.8462,4121.5385,4094.8718,4122.5641,4258.4615,4129.7436
4099.4872,4089.7436,4104.6154,4249.2308,4159.4872,4098.4615,4113.8462,4118.9744,4093.8462,4121.5385,4249.2308,4116.9231
4103.5897,4090.2564,4110.2564,4253.3333,4163.0769,4098.9744,4112.3077,4120,4092.3077,4125.641,4252.3077,4127.1795
4109.7436,4093.3333,4110.2564,4261.5385,4149.2308,4081.0256,4109.7436,4121.5385,4086.6667,4126.1538,4254.8718,4149.7436
4106.1538,4096.4103,4112.3077,4258.4615,4140,4072.8205,4109.7436,4117.9487,4084.6154,4125.641,4248.7179,4153.3333
4109.7436,4092.8205,4122.5641,4259.4872,4157.9487,4080.5128,4109.7436,4120.5128,4091.2821,4137.4359,4253.8462,4153.8462
4115.3846,4097.4359,4123.0769,4267.6923,4166.1538,4084.1026,4110.7692,4126.1538,4092.8205,4141.0256,4254.8718,4153.3333
4105.1282,4095.8974,4108.7179,4264.6154,4153.8462,4097.4359,4113.3333,4122.0513,4082.5641,4124.1026,4240,4141.5385
4098.9744,4091.2821,4103.5897,4255.3846,4158.9744,4111.2821,4115.3846,4116.9231,4079.4872,4117.9487,4235.3846,4135.8974
4103.0769,4095.3846,4108.2051,4255.3846,4171.2821,4097.4359,4110.7692,4117.9487,4085.1282,4124.1026,4244.1026,4140.5128
4109.2308,4094.359,4108.2051,4262.5641,4167.1795,4082.0513,4105.1282,4118.9744,4087.1795,4124.1026,4245.641,4143.5897
4116.9231,4097.4359,4108.7179,4270.2564,4164.6154,4093.3333,4114.359,4122.5641,4093.3333,4127.6923,4251.2821,4147.6923
4117.9487,4097.4359,4108.2051,4267.1795,4174.359,4108.2051,4119.4872,4124.6154,4099.4872,4130.2564,4257.4359,4147.1795
4112.8205,4092.8205,4104.6154,4260.5128,4173.8462,4100,4106.1538,4117.4359,4097.9487,4122.0513,4248.2051,4137.4359
4113.3333,4094.8718,4106.6667,4263.5897,4155.3846,4083.0769,4100,4112.3077,4096.4103,4123.5897,4244.1026,4137.4359
4113.8462,4093.3333,4110.7692,4268.2051,4147.1795,4081.5385,4100.5128,4106.6667,4094.359,4131.2821,4249.7436,4143.0769
4106.1538,4092.8205,4101.0256,4260.5128,4159.4872,4086.1538,4093.3333,4097.9487,4089.7436,4125.641,4247.1795,4133.3333
4102.5641,4093.3333,4094.359,4252.3077,4169.2308,4095.3846,4095.8974,4100,4092.3077,4117.4359,4243.0769,4124.1026
4110.2564,4094.359,4104.6154,4259.4872,4169.2308,4105.1282,4109.7436,4108.7179,4102.0513,4122.5641,4249.7436,4132.3077
4120.5128,4101.0256,4112.3077,4269.2308,4165.641,4098.9744,4109.7436,4110.2564,4105.641,4128.7179,4260.5128,4142.0513
4123.0769,4096.9231,4108.2051,4264.1026,4161.0256,4087.6923,4103.5897,4105.1282,4106.1538,4125.1282,4260.5128,4139.4872
4122.5641,4095.8974,4104.6154,4257.4359,4161.5385,4094.359,4106.1538,4105.641,4108.2051,4121.0256,4254.359,4140.5128
4132.8205,4101.5385,4105.641,4261.5385,4168.2051,4108.7179,4107.6923,4108.7179,4109.7436,4124.6154,4258.4615,4151.2821
4146.1538,4103.0769,4110.7692,4268.7179,4167.1795,4112.3077,4109.7436,4108.2051,4109.2308,4127.6923,4263.5897,4157.4359
4156.4103,4109.7436,4121.0256,4277.9487,4161.0256,4104.1026,4111.7949,4107.1795,4109.2308,4128.7179,4261.0256,4162.0513
4175.8974,4110.7692,4130.2564,4283.0769,4164.1026,4090.2564,4107.6923,4105.641,4112.8205,4132.8205,4267.6923,4172.8205
4194.359,4113.8462,4137.4359,4288.7179,4171.2821,4084.6154,4102.0513,4109.2308,4123.0769,4144.1026,4286.1538,4188.7179
4206.6667,4123.5897,4148.7179,4300,4174.359,4091.2821,4100.5128,4118.9744,4140,4156.4103,4300,4203.5897
4214.8718,4120,4152.8205,4304.1026,4171.2821,4095.3846,4102.5641,4117.4359,4140,4160,4297.9487,4207.6923
4208.7179,4111.2821,4146.1538,4294.8718,4162.5641,4094.359,4106.6667,4107.6923,4122.5641,4154.359,4287.1795,4195.8974
4193.3333,4104.1026,4137.4359,4284.1026,4162.5641,4098.4615,4107.6923,4105.1282,4120,4151.2821,4290.2564,4186.1538
4184.6154,4107.6923,4130.7692,4284.1026,4167.6923,4106.6667,4103.5897,4102.5641,4129.7436,4152.3077,4294.8718,4184.6154
4184.6154,4111.7949,4130.7692,4288.7179,4166.6667,4107.1795,4101.0256,4094.8718,4126.6667,4150.2564,4283.0769,4179.4872
4185.641,4105.1282,4132.8205,4290.2564,4169.7436,4101.5385,4104.1026,4097.9487,4125.1282,4151.2821,4275.3846,4176.9231
4185.1282,4108.2051,4130.7692,4294.359,4171.2821,4098.4615,4107.6923,4109.2308,4136.9231,4150.7692,4283.0769,4177.9487
4184.6154,4111.2821,4124.1026,4293.8462,4155.8974,4103.0769,4110.2564,4111.7949,4132.8205,4142.5641,4283.5897,4173.3333
4183.0769,4107.1795,4121.0256,4283.5897,4150.2564,4117.9487,4120.5128,4109.7436,4121.5385,4137.4359,4278.4615,4167.6923
4182.5641,4105.641,4121.0256,4276.9231,4169.2308,4118.9744,4126.6667,4115.8974,4125.1282,4138.4615,4277.4359,4167.6923
4187.1795,4106.1538,4125.641,4283.0769,4175.8974,4096.4103,4111.2821,4117.4359,4126.6667,4142.0513,4278.9744,4170.7692
4196.9231,4114.8718,4139.4872,4293.3333,4165.1282,4085.1282,4096.9231,4110.7692,4122.5641,4152.8205,4283.5897,4178.4615
4200,4114.359,4141.5385,4293.3333,4165.1282,4100.5128,4100.5128,4106.6667,4123.5897,4156.4103,4284.6154,4183.5897
4193.3333,4109.2308,4127.6923,4283.0769,4169.2308,4107.1795,4104.6154,4100,4122.0513,4143.0769,4281.5385,4174.8718
4201.0256,4117.4359,4126.6667,4283.5897,4168.2051,4103.0769,4103.5897,4094.8718,4122.5641,4143.0769,4287.1795,4178.4615
4232.3077,4121.0256,4145.1282,4293.8462,4169.7436,4106.6667,4102.5641,4100,4131.7949,4163.0769,4302.5641,4203.5897
4267.6923,4128.2051,4156.4103,4302.0513,4169.2308,4103.5897,4099.4872,4100.5128,4136.4103,4169.2308,4311.7949,4223.5897
4302.0513,4138.4615,4162.0513,4312.3077,4173.3333,4093.8462,4093.8462,4090.2564,4138.4615,4165.1282,4321.5385,4243.0769
4337.9487,4141.0256,4176.4103,4321.5385,4175.3846,4091.2821,4091.7949,4087.1795,4147.6923,4167.1795,4337.9487,4272.3077
4360.5128,4142.5641,4187.6923,4323.5897,4164.6154,4091.7949,4100.5128,4091.2821,4155.8974,4171.2821,4351.2821,4291.2821
4363.5897,4140,4189.2308,4325.641,4158.9744,4088.2051,4106.6667,4091.2821,4156.9231,4175.3846,4358.9744,4295.8974
4350.7692,4135.3846,4189.2308,4322.0513,4166.1538,4093.3333,4101.5385,4091.7949,4154.359,4175.8974,4352.3077,4293.8462
4332.3077,4126.1538,4183.5897,4309.7436,4156.9231,4096.4103,4100.5128,4093.3333,4152.8205,4173.3333,4344.1026,4277.9487
4313.8462,4120.5128,4175.3846,4301.5385,4135.8974,4080,4106.1538,4093.8462,4149.2308,4170.7692,4341.0256,4252.8205
4287.6923,4121.0256,4165.641,4294.359,4146.6667,4077.4359,4108.2051,4089.2308,4139.4872,4161.5385,4326.6667,4233.3333
4267.6923,4112.8205,4154.8718,4290.7692,4173.8462,4090.7692,4107.1795,4091.2821,4131.7949,4151.2821,4310.2564,4225.1282
4258.9744,4111.2821,4154.8718,4294.359,4175.3846,4089.2308,4112.3077,4104.1026,4135.8974,4153.8462,4307.6923,4219.4872
4242.5641,4111.7949,4154.359,4288.7179,4166.1538,4094.8718,4121.0256,4109.7436,4138.9744,4156.4103,4303.5897,4203.0769
4221.0256,4104.6154,4144.1026,4277.9487,4163.0769,4108.7179,4120.5128,4106.6667,4133.8462,4151.2821,4292.8205,4185.641
4209.2308,4105.641,4140,4274.8718,4153.3333,4097.4359,4115.3846,4108.7179,4134.8718,4151.2821,4291.7949,4177.4359
4202.5641,4104.1026,4145.641,4272.8205,4154.8718,4094.359,4118.4615,4115.8974,4140.5128,4153.8462,4294.359,4169.7436
4193.8462,4104.1026,4144.6154,4276.4103,4168.2051,4107.6923,4127.6923,4122.0513,4139.4872,4154.359,4290.7692,4159.4872
4185.1282,4108.7179,4139.4872,4278.9744,4160,4099.4872,4124.6154,4120.5128,4132.3077,4150.2564,4283.5897,4155.8974
4180,4108.7179,4137.4359,4268.7179,4153.8462,4092.8205,4114.359,4109.2308,4127.6923,4143.0769,4281.0256,4157.9487
4182.0513,4112.3077,4136.4103,4266.6667,4169.7436,4107.1795,4115.8974,4108.7179,4124.6154,4140.5128,4282.0513,4151.2821
4182.5641,4109.2308,4137.9487,4276.4103,4179.4872,4111.7949,4121.0256,4118.4615,4122.5641,4144.6154,4281.5385,4145.641
4174.8718,4108.2051,4140,4270.7692,4171.2821,4108.7179,4124.1026,4122.5641,4127.1795,4150.7692,4283.5897,4147.6923
4166.6667,4112.3077,4141.0256,4261.5385,4170.7692,4113.3333,4126.1538,4123.0769,4127.6923,4149.7436,4281.0256,4142.5641
4159.4872,4105.641,4137.9487,4262.5641,4167.6923,4111.2821,4122.0513,4117.4359,4119.4872,4141.0256,4269.2308,4132.3077
4148.7179,4102.5641,4127.6923,4254.359,4154.8718,4103.0769,4115.8974,4106.6667,4116.9231,4131.7949,4266.1538,4125.641
4143.0769,4105.641,4120,4242.0513,4153.3333,4109.7436,4116.9231,4106.6667,4124.1026,4131.2821,4264.6154,4122.5641
4143.5897,4109.2308,4120,4249.2308,4158.4615,4116.9231,4121.0256,4118.4615,4125.641,4137.9487,4239.4872,4124.6154
4147.1795,4113.3333,4127.6923,4260,4156.4103,4109.2308,4120.5128,4122.5641,4121.5385,4140.5128,4212.8205,4131.7949
4158.9744,4111.7949,4133.3333,4261.0256,4151.7949,4103.5897,4118.9744,4112.8205,4117.9487,4137.4359,4212.3077,4139.4872
4184.6154,4119.4872,4134.359,4267.6923,4152.8205,4110.2564,4116.9231,4105.1282,4116.9231,4138.9744,4217.9487,4152.3077
4234.8718,4132.3077,4148.7179,4290.2564,4155.8974,4112.3077,4114.359,4107.1795,4124.6154,4154.359,4229.7436,4191.2821
4300,4143.0769,4176.9231,4314.359,4155.8974,4106.1538,4109.2308,4102.5641,4138.4615,4169.7436,4252.8205,4237.4359
4341.5385,4150.7692,4191.2821,4322.0513,4155.8974,4106.6667,4105.1282,4090.2564,4144.1026,4173.3333,4264.1026,4266.1538
4347.1795,4145.1282,4183.5897,4327.1795,4156.4103,4114.8718,4108.2051,4088.2051,4138.4615,4171.2821,4270.2564,4278.4615
4335.8974,4141.0256,4177.4359,4332.3077,4155.8974,4120.5128,4111.7949,4090.7692,4137.9487,4169.2308,4275.8974,4275.8974
4322.5641,4137.4359,4175.8974,4323.0769,4146.1538,4123.0769,4112.3077,4094.8718,4145.1282,4170.2564,4276.9231,4273.3333
4306.1538,4127.6923,4171.2821,4309.7436,4139.4872,4123.5897,4115.3846,4101.5385,4143.5897,4166.6667,4272.8205,4265.641
4287.1795,4123.0769,4170.2564,4311.2821,4158.9744,4118.9744,4122.0513,4105.641,4135.3846,4160,4266.6667,4242.5641
4269.7436,4118.9744,4166.1538,4312.8205,4175.3846,4114.359,4123.5897,4112.3077,4135.8974,4157.4359,4263.0769,4224.1026
4245.641,4117.9487,4151.2821,4295.3846,4154.8718,4112.8205,4125.641,4118.9744,4135.3846,4152.8205,4253.8462,4212.3077
4214.359,4109.2308,4134.8718,4276.4103,4143.0769,4126.1538,4126.6667,4113.8462,4119.4872,4141.0256,4237.9487,4187.1795
4195.8974,4101.5385,4132.3077,4273.3333,4161.0256,4141.0256,4123.5897,4106.1538,4106.1538,4133.8462,4227.6923,4157.9487
4192.3077,4110.2564,4136.9231,4276.4103,4161.5385,4126.1538,4126.6667,4113.8462,4108.2051,4138.9744,4227.1795,4150.7692
4181.5385,4108.2051,4134.8718,4272.3077,4151.7949,4115.3846,4134.8718,4125.1282,4111.7949,4141.5385,4224.1026,4150.2564
4166.1538,4101.0256,4129.7436,4263.0769,4160.5128,4130.7692,4135.8974,4120.5128,4109.7436,4138.4615,4218.9744,4139.4872
4154.359,4097.4359,4124.6154,4254.359,4155.3846,4129.7436,4128.2051,4107.6923,4105.641,4138.4615,4212.8205,4125.1282
4140,4093.8462,4119.4872,4247.1795,4140.5128,4112.3077,4123.5897,4104.1026,4102.0513,4137.4359,4203.0769,4117.4359
4133.3333,4102.5641,4119.4872,4248.7179,4148.7179,4116.4103,4119.4872,4112.8205,4104.6154,4136.4103,4202.0513,4121.0256
4140,4107.1795,4122.5641,4251.7949,4160,4127.6923,4110.7692,4104.1026,4104.6154,4138.4615,4207.1795,4124.6154
4136.4103,4106.1538,4120,4247.6923,4157.4359,4121.5385,4108.7179,4089.2308,4094.8718,4139.4872,4202.5641,4118.4615
4123.5897,4104.6154,4109.7436,4245.1282,4154.359,4117.9487,4116.4103,4095.8974,4087.6923,4136.4103,4190.7692,4107.1795
4115.8974,4097.4359,4104.1026,4245.641,4155.8974,4128.2051,4120.5128,4106.6667,4093.8462,4134.8718,4191.7949,4101.0256
4110.7692,4097.4359,4106.6667,4237.9487,4155.3846,4134.8718,4112.8205,4108.2051,4106.6667,4138.4615,4196.9231,4098.9744
4106.1538,4098.9744,4108.2051,4231.2821,4155.3846,4126.6667,4105.1282,4108.7179,4107.6923,4136.9231,4195.8974,4096.4103
4098.4615,4100,4100,4234.359,4155.3846,4116.4103,4107.1795,4102.5641,4092.8205,4125.641,4189.2308,4089.7436
4089.7436,4100,4092.8205,4231.7949,4152.3077,4125.641,4111.2821,4096.4103,4090.7692,4120,4187.1795,4078.9744
4093.3333,4097.4359,4099.4872,4227.6923,4153.8462,4132.3077,4111.2821,4112.3077,4104.6154,4131.7949,4196.4103,4079.4872
4095.8974,4102.0513,4104.6154,4231.7949,4153.8462,4122.5641,4117.4359,4124.6154,4104.1026,4134.359,4196.4103,4084.1026
4088.7179,4098.9744,4097.9487,4224.6154,4148.7179,4122.0513,4120,4109.7436,4090.2564,4124.1026,4188.2051,4078.4615
4086.1538,4094.8718,4098.9744,4210.7692,4148.2051,4131.7949,4115.8974,4106.1538,4086.1538,4127.1795,4185.641,4074.8718
4093.8462,4102.0513,4109.2308,4217.9487,4150.7692,4128.7179,4117.9487,4124.6154,4097.4359,4139.4872,4190.7692,4085.1282
4099.4872,4103.5897,4109.7436,4230.7692,4148.7179,4119.4872,4125.1282,4129.7436,4106.1538,4138.4615,4189.7436,4090.2564
4097.4359,4104.1026,4105.1282,4230.7692,4148.2051,4126.6667,4125.641,4116.9231,4099.4872,4134.8718,4184.1026,4078.9744
4095.8974,4104.1026,4105.641,4229.7436,4158.4615,4139.4872,4122.5641,4109.2308,4095.3846,4137.4359,4185.641,4076.4103
4094.359,4104.1026,4104.1026,4231.2821,4156.9231,4136.4103,4122.5641,4110.2564,4101.5385,4136.9231,4186.6667,4082.0513
4091.2821,4108.2051,4101.5385,4230.2564,4145.1282,4130.2564,4122.5641,4112.3077,4098.9744,4135.3846,4184.1026,4078.4615
4090.7692,4104.6154,4103.0769,4227.6923,4157.9487,4136.4103,4120.5128,4112.3077,4093.8462,4138.4615,4184.1026,4076.4103
4093.3333,4106.6667,4109.7436,4222.5641,4169.7436,4136.9231,4121.5385,4116.4103,4104.6154,4140,4191.2821,4084.1026
4090.2564,4108.2051,4110.7692,4217.4359,4152.3077,4127.1795,4123.0769,4121.5385,4112.3077,4134.8718,4195.8974,4084.1026
4078.9744,4098.4615,4097.4359,4214.359,4138.9744,4127.1795,4122.5641,4112.8205,4097.4359,4122.0513,4184.1026,4063.5897
4079.4872,4100.5128,4095.3846,4214.359,4149.2308,4127.1795,4123.5897,4108.7179,4087.1795,4120,4173.3333,4057.9487
4092.8205,4103.0769,4110.7692,4217.4359,4156.4103,4114.8718,4125.641,4115.3846,4097.4359,4129.2308,4179.4872,4076.4103
4090.7692,4103.0769,4113.8462,4219.4872,4152.3077,4117.9487,4125.641,4107.1795,4099.4872,4126.1538,4178.4615,4070.7692
4078.4615,4103.0769,4102.5641,4216.9231,4149.2308,4126.1538,4121.0256,4088.2051,4087.6923,4113.8462,4165.641,4049.7436
4087.6923,4104.6154,4105.641,4216.4103,4149.2308,4109.7436,4111.7949,4087.1795,4094.359,4118.9744,4169.2308,4058.9744
4103.5897,4111.2821,4117.9487,4221.0256,4153.3333,4097.9487,4112.3077,4104.1026,4112.3077,4136.4103,4188.2051,4078.9744
4095.3846,4105.1282,4111.7949,4214.8718,4156.4103,4106.6667,4116.4103,4105.641,4107.6923,4138.4615,4190.2564,4074.8718
4076.9231,4097.4359,4098.9744,4202.0513,4150.7692,4107.1795,4110.2564,4092.3077,4091.7949,4125.1282,4169.2308,4059.4872
4077.4359,4100,4098.9744,4203.0769,4146.1538,4101.0256,4105.1282,4091.2821,4093.3333,4120.5128,4161.0256,4057.4359
4091.2821,4104.1026,4108.7179,4214.8718,4148.2051,4110.7692,4115.8974,4104.6154,4104.1026,4127.6923,4176.4103,4068.2051
4092.8205,4106.6667,4110.2564,4217.9487,4146.1538,4126.6667,4128.7179,4109.7436,4108.7179,4131.7949,4182.5641,4071.7949
4085.1282,4101.5385,4105.1282,4212.3077,4142.5641,4126.1538,4124.6154,4107.6923,4106.1538,4129.7436,4175.3846,4067.1795
4086.1538,4105.641,4108.2051,4212.8205,4147.1795,4122.0513,4117.9487,4107.6923,4106.1538,4127.1795,4178.4615,4067.6923
4090.2564,4110.7692,4109.2308,4215.8974,4150.7692,4123.5897,4120,4101.0256,4105.641,4122.0513,4183.0769,4071.2821
4087.1795,4103.5897,4103.5897,4215.3846,4144.6154,4117.9487,4121.0256,4097.9487,4104.1026,4123.5897,4180,4068.7179
4095.3846,4108.7179,4111.7949,4218.9744,4152.8205,4112.8205,4123.5897,4109.2308,4115.8974,4139.4872,4182.0513,4075.3846
4110.2564,4111.2821,4127.1795,4227.6923,4158.9744,4121.0256,4124.6154,4113.3333,4124.1026,4151.7949,4189.7436,4084.6154
4100,4102.5641,4119.4872,4229.7436,4129.7436,4116.9231,4113.3333,4099.4872,4110.7692,4144.1026,4183.5897,4074.8718
4085.1282,4099.4872,4108.2051,4217.9487,4116.9231,4103.0769,4104.6154,4094.359,4103.0769,4138.4615,4173.8462,4066.1538
4096.4103,4103.0769,4118.4615,4213.8462,4150.2564,4111.2821,4116.9231,4106.1538,4114.359,4152.8205,4177.4359,4080
4105.641,4110.2564,4128.2051,4228.7179,4164.1026,4127.1795,4127.6923,4114.8718,4118.4615,4158.9744,4184.6154,4089.2308
4096.9231,4106.1538,4119.4872,4233.8462,4143.5897,4124.6154,4118.4615,4106.6667,4108.7179,4141.5385,4184.6154,4078.9744
4090.7692,4103.5897,4109.7436,4222.0513,4136.9231,4117.9487,4117.4359,4102.5641,4104.6154,4136.9231,4180.5128,4076.4103
4092.8205,4110.7692,4110.7692,4222.5641,4143.0769,4122.5641,4130.2564,4117.9487,4111.7949,4140.5128,4183.0769,4085.641
4098.4615,4109.2308,4115.8974,4231.2821,4142.5641,4127.1795,4127.1795,4120,4118.9744,4120,4190.2564,4086.6667
4103.5897,4109.2308,4120,4233.3333,4144.6154,4121.5385,4116.4103,4106.6667,4121.0256,4101.5385,4194.359,4086.6667
4108.7179,4109.2308,4121.5385,4233.8462,4150.7692,4123.5897,4117.4359,4109.7436,4122.5641,4107.6923,4201.0256,4093.8462
4109.2308,4108.2051,4118.4615,4229.7436,4160.5128,4135.3846,4125.641,4120.5128,4123.0769,4109.2308,4207.6923,4097.4359
4097.4359,4106.1538,4111.2821,4218.9744,4150.2564,4133.8462,4124.6154,4109.7436,4115.3846,4096.9231,4198.4615,4085.641
