"AF3","F7","F3","FC5","T7","P7","O1","O2","FC6","F4","F8","AF4"
4114.8718,4132.3077,4111.7949,4128.7179,4108.2051,4074.8718,4141.0256,4131.7949,4130.2564,4115.8974,4149.7436,4115.3846
4104.1026,4129.7436,4103.0769,4118.9744,4099.4872,4068.7179,4141.0256,4136.4103,4128.2051,4112.3077,4144.1026,4102.5641
4102.0513,4130.7692,4105.1282,4115.3846,4107.6923,4071.2821,4148.7179,4142.5641,4129.2308,4118.9744,4133.8462,4101.0256
4106.1538,4128.7179,4103.5897,4120,4112.8205,4071.2821,4149.2308,4140.5128,4130.7692,4120.5128,4132.8205,4106.6667
4103.0769,4128.2051,4100.5128,4117.4359,4109.2308,4070.2564,4148.7179,4138.9744,4128.7179,4111.7949,4135.3846,4102.5641
4111.2821,4129.2308,4115.3846,4127.6923,4112.8205,4083.5897,4164.6154,4148.7179,4135.3846,4117.9487,4147.1795,4114.359
4110.2564,4127.6923,4111.2821,4123.5897,4106.1538,4077.4359,4155.8974,4135.3846,4132.8205,4117.4359,4132.8205,4106.1538
4114.8718,4130.7692,4107.6923,4120,4107.1795,4078.4615,4153.3333,4131.7949,4131.2821,4118.9744,4137.9487,4101.5385
4123.0769,4136.4103,4117.9487,4125.641,4112.3077,4083.5897,4153.8462,4138.4615,4137.4359,4123.5897,4163.0769,4114.8718
4127.1795,4142.0513,4123.0769,4129.7436,4108.2051,4075.3846,4139.4872,4134.8718,4138.4615,4125.1282,4161.5385,4119.4872
4129.7436,4136.9231,4127.6923,4138.9744,4108.2051,4083.0769,4147.6923,4139.4872,4139.4872,4128.7179,4156.9231,4122.5641
4115.8974,4130.7692,4118.4615,4131.2821,4110.7692,4081.0256,4148.2051,4133.8462,4132.8205,4118.4615,4141.0256,4107.1795
4118.9744,4139.4872,4116.9231,4134.8718,4121.0256,4082.5641,4146.6667,4131.2821,4132.3077,4118.9744,4142.0513,4105.1282
4129.2308,4136.4103,4123.0769,4138.4615,4112.3077,4088.2051,4146.6667,4133.8462,4137.9487,4128.2051,4157.4359,4116.4103
4123.5897,4124.6154,4120,4124.6154,4094.8718,4085.641,4143.0769,4130.2564,4136.9231,4128.2051,4153.3333,4112.8205
4128.7179,4129.2308,4123.5897,4133.3333,4107.1795,4095.8974,4158.4615,4138.9744,4140.5128,4136.9231,4159.4872,4119.4872
4129.7436,4133.3333,4122.5641,4139.4872,4118.9744,4087.1795,4149.7436,4134.8718,4136.9231,4131.7949,4157.4359,4114.8718
4134.359,4134.359,4132.8205,4144.6154,4126.1538,4081.0256,4136.9231,4131.2821,4136.9231,4130.7692,4159.4872,4118.9744
4140,4133.8462,4142.5641,4151.2821,4124.1026,4091.2821,4141.0256,4135.3846,4142.0513,4140.5128,4172.3077,4133.8462
4128.2051,4129.7436,4129.7436,4135.3846,4112.3077,4088.7179,4137.4359,4133.3333,4137.9487,4133.3333,4161.5385,4121.5385
4124.1026,4126.6667,4127.1795,4128.2051,4117.9487,4091.7949,4145.641,4141.5385,4138.9744,4128.2051,4154.359,4119.4872
4119.4872,4124.6154,4121.0256,4120,4115.8974,4088.7179,4143.0769,4136.4103,4135.3846,4122.0513,4147.1795,4116.9231
4125.641,4131.7949,4124.6154,4118.9744,4112.8205,4092.8205,4148.7179,4137.4359,4133.8462,4128.7179,4154.359,4121.0256
4142.0513,4136.9231,4141.5385,4132.8205,4116.4103,4099.4872,4162.0513,4153.3333,4143.0769,4140.5128,4170.7692,4135.3846
4137.9487,4132.8205,4134.8718,4133.8462,4110.7692,4086.6667,4147.1795,4148.2051,4143.0769,4134.359,4157.9487,4126.1538
4135.8974,4132.3077,4131.2821,4141.5385,4116.4103,4087.6923,4144.6154,4143.0769,4141.5385,4136.4103,4159.4872,4129.2308
4128.2051,4127.1795,4127.1795,4140,4121.0256,4084.6154,4145.1282,4137.9487,4139.4872,4131.2821,4163.0769,4132.3077
4123.5897,4124.6154,4123.5897,4133.8462,4121.5385,4078.9744,4144.1026,4141.0256,4139.4872,4123.0769,4156.9231,4126.6667
4127.6923,4127.1795,4127.6923,4136.4103,4123.0769,4083.0769,4145.1282,4145.1282,4143.0769,4124.1026,4158.9744,4131.2821
4125.1282,4130.7692,4127.6923,4131.2821,4117.9487,4074.359,4132.3077,4135.8974,4140,4123.5897,4155.3846,4130.7692
4135.3846,4132.8205,4134.359,4136.9231,4120.5128,4078.9744,4150.7692,4147.1795,4144.1026,4133.3333,4161.0256,4143.0769
4130.7692,4125.641,4128.7179,4127.1795,4112.3077,4072.8205,4154.8718,4146.1538,4143.5897,4127.1795,4152.8205,4143.5897
4127.6923,4130.2564,4129.7436,4124.1026,4110.2564,4060,4132.3077,4135.8974,4141.5385,4116.4103,4146.6667,4136.4103
4142.5641,4135.3846,4140,4148.2051,4124.1026,4066.1538,4137.4359,4144.1026,4146.6667,4122.5641,4158.4615,4148.2051
4127.6923,4125.641,4118.9744,4136.4103,4125.1282,4058.4615,4129.7436,4135.3846,4135.8974,4110.7692,4137.9487,4133.3333
4109.2308,4123.5897,4104.1026,4118.4615,4128.7179,4062.5641,4126.1538,4127.1795,4128.2051,4100.5128,4121.0256,4115.3846
4108.2051,4127.1795,4107.1795,4118.4615,4123.5897,4064.1026,4133.3333,4130.2564,4131.7949,4106.6667,4121.0256,4113.8462
4118.9744,4131.7949,4113.3333,4118.9744,4116.4103,4048.2051,4124.6154,4129.7436,4128.7179,4114.8718,4120,4120
4126.1538,4129.7436,4116.4103,4121.5385,4120,4050.2564,4131.2821,4132.8205,4127.1795,4115.3846,4128.2051,4128.7179
4109.7436,4122.5641,4101.5385,4112.8205,4107.6923,4049.2308,4137.9487,4132.8205,4126.1538,4104.1026,4118.9744,4116.4103
4113.3333,4130.2564,4107.1795,4119.4872,4109.2308,4042.5641,4136.4103,4139.4872,4133.8462,4111.7949,4128.2051,4124.1026
4125.1282,4134.359,4121.0256,4127.1795,4119.4872,4030.7692,4126.6667,4134.359,4135.8974,4118.4615,4144.1026,4137.4359
4117.9487,4131.2821,4114.8718,4118.4615,4121.0256,4023.5897,4113.8462,4120,4128.2051,4112.3077,4130.2564,4125.1282
4121.0256,4133.3333,4114.359,4126.1538,4126.6667,4032.8205,4116.9231,4126.6667,4130.7692,4118.4615,4127.1795,4126.1538
4112.3077,4132.8205,4105.1282,4121.5385,4115.3846,4025.1282,4108.2051,4123.5897,4126.6667,4105.1282,4114.359,4111.7949
4107.6923,4132.3077,4103.0769,4114.8718,4109.7436,4026.6667,4113.3333,4123.5897,4123.0769,4100.5128,4110.7692,4102.0513
4117.4359,4130.2564,4111.2821,4118.9744,4109.7436,4033.3333,4126.6667,4131.2821,4127.1795,4116.4103,4122.5641,4116.4103
4115.8974,4130.7692,4106.1538,4109.7436,4101.5385,4024.6154,4122.0513,4125.1282,4126.6667,4116.4103,4112.3077,4113.8462
4120.5128,4131.2821,4106.1538,4111.2821,4109.2308,4032.3077,4129.2308,4130.7692,4131.2821,4118.9744,4118.9744,4120
4128.7179,4131.2821,4110.7692,4116.4103,4110.2564,4027.6923,4121.5385,4129.7436,4134.8718,4122.5641,4132.3077,4125.641
4136.9231,4137.9487,4120.5128,4128.7179,4108.2051,4024.1026,4118.9744,4127.1795,4134.359,4121.0256,4139.4872,4126.6667
4133.3333,4136.4103,4119.4872,4131.7949,4111.2821,4032.3077,4127.1795,4131.2821,4129.2308,4114.8718,4135.8974,4125.1282
4116.4103,4131.2821,4106.1538,4112.3077,4110.7692,4026.1538,4111.7949,4125.1282,4123.0769,4110.7692,4121.5385,4111.2821
4122.5641,4133.3333,4115.8974,4120,4121.5385,4033.8462,4120,4127.6923,4131.7949,4124.6154,4135.8974,4121.0256
4124.6154,4132.3077,4115.8974,4127.6923,4122.5641,4038.9744,4133.8462,4129.2308,4131.7949,4124.1026,4137.4359,4123.0769
4123.0769,4134.8718,4112.3077,4126.1538,4117.9487,4034.8718,4132.8205,4130.7692,4127.6923,4121.0256,4131.2821,4120
4126.1538,4135.3846,4118.4615,4127.6923,4119.4872,4031.2821,4129.2308,4127.6923,4135.8974,4127.1795,4143.5897,4132.8205
4118.4615,4128.2051,4113.3333,4119.4872,4121.5385,4021.0256,4117.9487,4115.8974,4135.3846,4121.0256,4137.9487,4125.1282
4127.6923,4134.359,4119.4872,4133.3333,4131.2821,4029.7436,4127.1795,4130.2564,4137.4359,4126.1538,4148.7179,4129.7436
4130.7692,4138.4615,4119.4872,4135.3846,4122.0513,4025.1282,4123.0769,4130.7692,4136.4103,4125.1282,4160.5128,4137.4359
4127.1795,4131.2821,4113.8462,4123.0769,4113.8462,4016.4103,4113.8462,4122.5641,4134.359,4122.0513,4154.359,4135.8974
4134.8718,4129.2308,4124.1026,4132.3077,4121.0256,4027.6923,4127.1795,4132.3077,4141.0256,4131.7949,4153.3333,4142.0513
4135.3846,4138.4615,4128.2051,4134.359,4120.5128,4017.9487,4121.0256,4125.641,4135.8974,4128.7179,4154.8718,4141.5385
4144.6154,4146.6667,4130.7692,4134.359,4126.1538,4014.8718,4120,4124.1026,4133.8462,4130.2564,4180,4156.9231
4142.0513,4136.9231,4122.0513,4127.6923,4122.0513,4018.9744,4122.0513,4124.6154,4133.3333,4128.2051,4177.4359,4149.7436
4137.4359,4134.359,4119.4872,4130.7692,4122.0513,4018.4615,4118.9744,4126.1538,4139.4872,4129.7436,4167.6923,4140
4153.3333,4140,4131.2821,4142.0513,4132.8205,4023.0769,4124.6154,4133.8462,4150.7692,4142.5641,4196.9231,4170.7692
4156.4103,4139.4872,4125.1282,4123.5897,4128.2051,4018.4615,4115.3846,4122.5641,4150.7692,4137.9487,4195.8974,4174.8718
4164.6154,4145.641,4132.3077,4128.2051,4136.9231,4028.7179,4122.5641,4124.6154,4160.5128,4143.0769,4190.7692,4174.8718
4172.3077,4144.1026,4143.0769,4148.2051,4141.5385,4028.2051,4124.1026,4129.7436,4171.7949,4148.2051,4206.6667,4188.2051
4168.2051,4141.0256,4137.9487,4140.5128,4133.3333,4017.4359,4113.3333,4124.1026,4169.7436,4143.5897,4211.2821,4185.1282
4173.3333,4143.0769,4141.0256,4140.5128,4136.4103,4027.1795,4127.6923,4129.2308,4172.3077,4150.7692,4215.8974,4191.7949
4173.3333,4140.5128,4142.0513,4142.0513,4139.4872,4025.641,4131.2821,4128.2051,4176.4103,4152.8205,4214.359,4197.9487
4178.9744,4141.0256,4145.1282,4148.7179,4150.7692,4031.7949,4137.4359,4135.8974,4177.9487,4156.9231,4225.641,4206.6667
4174.8718,4135.8974,4139.4872,4148.7179,4148.2051,4033.8462,4138.9744,4139.4872,4172.8205,4152.8205,4234.8718,4204.6154
4164.1026,4134.8718,4132.3077,4133.8462,4140.5128,4022.5641,4126.6667,4128.2051,4166.1538,4139.4872,4224.1026,4190.7692
4176.4103,4142.0513,4143.5897,4141.0256,4158.9744,4032.3077,4132.3077,4129.2308,4168.7179,4144.6154,4233.8462,4200.5128
4180,4142.0513,4146.1538,4147.1795,4158.9744,4020,4109.7436,4118.4615,4161.5385,4143.0769,4237.9487,4197.4359
4185.641,4141.0256,4154.8718,4158.9744,4142.0513,4007.6923,4097.9487,4116.9231,4159.4872,4143.5897,4245.641,4201.5385
4191.2821,4140,4161.0256,4167.1795,4134.8718,4016.9231,4120.5128,4130.2564,4167.6923,4149.7436,4261.0256,4214.359
4185.641,4143.0769,4147.1795,4156.4103,4133.8462,4014.8718,4116.4103,4124.6154,4164.6154,4144.1026,4254.8718,4206.6667
4194.359,4142.5641,4154.359,4170.2564,4138.9744,4018.9744,4116.9231,4130.2564,4167.6923,4152.3077,4263.5897,4217.4359
4191.2821,4133.8462,4157.9487,4174.8718,4134.8718,4018.4615,4120.5128,4133.8462,4173.3333,4154.359,4267.1795,4213.3333
4186.6667,4139.4872,4154.359,4167.6923,4143.0769,4022.5641,4126.1538,4132.8205,4174.359,4151.7949,4275.8974,4204.6154
4188.2051,4145.641,4154.8718,4170.2564,4148.7179,4031.2821,4128.2051,4130.7692,4182.0513,4150.2564,4292.8205,4212.3077
4184.1026,4134.8718,4148.7179,4162.0513,4133.3333,4022.0513,4110.2564,4124.6154,4195.3846,4140.5128,4276.4103,4201.5385
4197.4359,4133.3333,4158.4615,4172.3077,4135.8974,4029.7436,4120,4134.8718,4205.641,4148.7179,4283.0769,4206.1538
4197.4359,4141.0256,4153.8462,4173.3333,4135.8974,4028.2051,4123.5897,4127.1795,4231.7949,4149.2308,4305.1282,4210.7692
4187.1795,4146.1538,4140.5128,4154.8718,4130.2564,4018.9744,4116.4103,4123.0769,4273.8462,4147.1795,4315.3846,4203.5897
4191.7949,4142.5641,4144.1026,4154.8718,4127.6923,4020.5128,4121.5385,4137.9487,4269.7436,4154.8718,4322.5641,4208.2051
4186.6667,4133.8462,4140,4154.359,4114.8718,4010.2564,4109.7436,4129.7436,4254.359,4147.1795,4323.0769,4197.4359
4182.0513,4131.2821,4135.8974,4152.8205,4115.3846,4018.9744,4116.9231,4123.5897,4271.2821,4146.1538,4342.0513,4192.3077
4174.359,4130.7692,4130.2564,4146.1538,4112.3077,4020.5128,4117.9487,4122.5641,4261.5385,4143.0769,4331.7949,4185.1282
4177.9487,4141.5385,4137.9487,4153.3333,4122.0513,4012.3077,4108.2051,4128.2051,4252.3077,4142.5641,4323.5897,4186.6667
4193.8462,4144.1026,4155.3846,4172.3077,4143.0769,4026.1538,4123.5897,4142.5641,4263.5897,4157.4359,4362.5641,4209.7436
4189.2308,4134.8718,4145.641,4167.1795,4123.0769,4021.0256,4122.0513,4134.359,4257.9487,4155.3846,4362.0513,4202.0513
4196.4103,4142.0513,4148.2051,4172.8205,4113.8462,4019.4872,4121.5385,4133.3333,4256.9231,4155.8974,4354.359,4201.0256
4196.4103,4138.9744,4154.8718,4172.3077,4123.5897,4024.1026,4128.2051,4143.5897,4256.9231,4159.4872,4368.7179,4209.2308
4187.1795,4133.8462,4152.3077,4153.3333,4126.6667,4025.1282,4132.3077,4147.6923,4253.8462,4163.0769,4376.9231,4208.7179
4194.8718,4132.8205,4160,4154.8718,4121.5385,4033.3333,4140,4148.2051,4255.3846,4168.2051,4381.0256,4222.0513
4188.7179,4128.2051,4163.0769,4166.6667,4102.0513,4026.6667,4128.7179,4136.4103,4247.1795,4158.4615,4366.6667,4209.7436
4196.9231,4140.5128,4172.3077,4191.7949,4106.6667,4029.7436,4131.2821,4141.0256,4244.6154,4164.6154,4373.3333,4205.641
4208.2051,4153.3333,4165.1282,4185.641,4123.0769,4029.7436,4134.359,4140.5128,4245.1282,4165.1282,4378.9744,4212.3077
4198.4615,4149.2308,4151.7949,4168.7179,4124.6154,4031.7949,4135.8974,4137.9487,4243.0769,4155.8974,4371.7949,4205.641
4206.6667,4142.5641,4173.8462,4212.3077,4123.5897,4052.8205,4160.5128,4156.9231,4246.6667,4169.7436,4398.4615,4222.0513
4213.3333,4137.9487,4182.5641,4227.6923,4109.7436,4045.641,4151.7949,4151.2821,4245.641,4174.8718,4407.6923,4226.6667
4211.7949,4133.8462,4178.9744,4201.5385,4092.8205,4043.5897,4145.641,4147.6923,4245.641,4176.9231,4401.0256,4225.641
4205.1282,4134.8718,4178.9744,4200.5128,4086.1538,4048.7179,4156.9231,4153.8462,4246.6667,4180,4403.0769,4227.1795
4205.1282,4153.3333,4171.2821,4218.4615,4106.6667,4040,4153.8462,4149.2308,4244.1026,4177.4359,4402.5641,4226.6667
4228.7179,4152.3077,4186.6667,4245.641,4132.3077,4061.5385,4178.4615,4169.7436,4247.6923,4190.7692,4417.4359,4252.8205
4231.7949,4124.6154,4199.4872,4247.6923,4102.5641,4072.3077,4184.6154,4177.9487,4245.641,4185.641,4412.8205,4251.7949
4226.1538,4142.5641,4191.7949,4252.8205,4077.4359,4065.1282,4168.2051,4161.5385,4241.0256,4177.4359,4410.2564,4242.5641
4226.6667,4157.9487,4186.1538,4268.2051,4071.7949,4067.6923,4171.7949,4148.2051,4240.5128,4185.641,4424.6154,4250.7692
4226.1538,4126.1538,4194.359,4256.9231,4031.2821,4059.4872,4170.2564,4146.1538,4237.9487,4185.1282,4416.9231,4245.1282
4240.5128,4134.8718,4200,4260,4011.2821,4066.1538,4178.9744,4168.7179,4235.3846,4185.641,4415.8974,4255.8974
4224.1026,4164.6154,4171.7949,4264.6154,4026.6667,4068.7179,4176.4103,4167.6923,4232.8205,4176.9231,4413.8462,4251.2821
4212.8205,4142.0513,4165.641,4269.7436,4043.0769,4063.0769,4167.1795,4157.4359,4235.3846,4174.359,4413.3333,4240.5128
4238.4615,4121.0256,4190.2564,4281.0256,4065.641,4057.4359,4167.6923,4164.6154,4234.8718,4181.0256,4416.4103,4256.4103
4230.2564,4137.9487,4176.9231,4267.6923,4210.7692,4038.4615,4152.8205,4152.8205,4224.6154,4168.2051,4391.7949,4248.2051
4203.0769,4134.359,4155.3846,4258.4615,4403.0769,4038.4615,4156.4103,4144.6154,4223.5897,4157.9487,4379.4872,4221.5385
4196.4103,4124.6154,4148.7179,4255.3846,4162.5641,4037.4359,4151.7949,4135.3846,4219.4872,4153.3333,4364.6154,4198.4615
4219.4872,4144.6154,4161.5385,4261.0256,3339.4872,4032.3077,4138.4615,4130.2564,4213.8462,4169.2308,4363.5897,4216.9231
4229.2308,4150.2564,4164.6154,4268.2051,2390.2564,4030.7692,4138.4615,4142.0513,4217.4359,4183.0769,4386.6667,4249.7436
4206.6667,4135.3846,4141.0256,4255.3846,1701.5385,4021.0256,4135.3846,4154.359,4215.8974,4166.6667,4368.7179,4230.2564
4210.7692,4122.0513,4150.7692,4269.7436,1213.8462,4031.2821,4154.359,4171.2821,4215.3846,4167.1795,4361.5385,4222.0513
4211.7949,4124.1026,4145.1282,4274.359,931.7949,4021.5385,4151.2821,4157.9487,4212.8205,4164.6154,4348.7179,4216.9231
4200,4147.1795,4114.8718,4270.7692,927.6923,4016.9231,4145.641,4144.6154,4206.6667,4155.8974,4325.1282,4202.5641
4208.7179,4143.5897,4116.4103,4281.5385,927.1795,4037.9487,4159.4872,4151.7949,4204.6154,4164.1026,4340,4222.0513
4213.8462,4122.0513,4117.9487,4268.7179,874.359,4023.5897,4140.5128,4139.4872,4201.5385,4163.5897,4343.0769,4230.2564
4216.9231,4129.2308,4116.4103,4282.0513,942.5641,4017.9487,4142.0513,4143.0769,4204.1026,4167.6923,4335.8974,4224.6154
4207.6923,4137.9487,4110.7692,4305.1282,1025.1282,4023.5897,4152.3077,4144.6154,4202.0513,4165.641,4321.5385,4213.3333
4210.7692,4143.0769,4111.7949,4300,1063.0769,4023.0769,4149.7436,4141.5385,4198.9744,4162.0513,4317.9487,4223.5897
4222.0513,4147.6923,4121.0256,4294.8718,1174.359,4036.4103,4165.641,4156.4103,4204.1026,4168.2051,4326.1538,4242.5641
4200,4129.7436,4112.8205,4274.359,1318.4615,4036.4103,4165.641,4150.2564,4200,4152.8205,4291.2821,4211.7949
4204.1026,4130.7692,4115.8974,4275.8974,1498.4615,4037.9487,4162.0513,4144.6154,4193.3333,4150.2564,4277.9487,4208.2051
4217.4359,4148.7179,4112.8205,4283.0769,1756.4103,4021.0256,4138.4615,4139.4872,4192.8205,4154.359,4288.2051,4225.641
4197.9487,4137.4359,4097.9487,4273.8462,1990.7692,4000.5128,4113.8462,4132.8205,4193.3333,4144.6154,4273.8462,4210.7692
4193.3333,4124.1026,4099.4872,4271.7949,2240,4014.8718,4134.8718,4141.0256,4191.7949,4144.6154,4259.4872,4206.6667
4202.5641,4141.0256,4099.4872,4263.5897,2581.5385,4009.7436,4137.4359,4132.3077,4187.1795,4145.1282,4246.6667,4206.1538
4212.8205,4149.2308,4114.359,4278.4615,2987.1795,4009.7436,4133.3333,4132.8205,4192.8205,4152.8205,4257.4359,4223.0769
4202.0513,4128.7179,4116.9231,4286.6667,3348.7179,4019.4872,4135.8974,4138.9744,4193.3333,4145.641,4253.3333,4225.1282
4190.2564,4134.359,4102.5641,4274.8718,3598.4615,4012.8205,4130.7692,4134.8718,4184.1026,4128.7179,4230.2564,4201.0256
4204.1026,4149.7436,4104.1026,4275.8974,3787.6923,4016.9231,4142.0513,4142.0513,4187.1795,4139.4872,4244.6154,4211.7949
4197.9487,4130.2564,4101.0256,4264.6154,3920,4011.2821,4139.4872,4138.4615,4187.6923,4140.5128,4241.5385,4210.2564
4202.0513,4121.5385,4120.5128,4272.8205,4025.641,4014.359,4144.1026,4142.0513,4188.2051,4143.5897,4241.5385,4206.1538
4218.4615,4138.4615,4139.4872,4287.1795,4125.1282,4017.4359,4146.6667,4144.1026,4190.2564,4152.8205,4260.5128,4220
4210.7692,4148.2051,4123.5897,4286.1538,4213.3333,4014.359,4137.9487,4134.8718,4184.1026,4151.7949,4251.2821,4215.3846
4208.7179,4148.2051,4121.0256,4300,4285.1282,4034.359,4158.9744,4145.1282,4183.0769,4156.9231,4246.1538,4222.5641
4207.1795,4132.8205,4129.2308,4290.7692,4308.7179,4029.2308,4156.9231,4141.5385,4187.1795,4150.7692,4244.6154,4234.8718
4209.7436,4120,4138.9744,4283.5897,4340,4021.0256,4154.8718,4142.5641,4188.2051,4150.7692,4253.3333,4250.7692
4206.6667,4125.1282,4137.9487,4294.359,4393.3333,4024.6154,4163.0769,4151.7949,4183.5897,4153.3333,4253.3333,4250.7692
4206.1538,4145.641,4127.6923,4288.7179,4445.641,4021.0256,4151.7949,4150.7692,4180.5128,4147.1795,4237.9487,4244.6154
4221.0256,4148.7179,4141.5385,4298.9744,4495.8974,4034.359,4165.1282,4161.5385,4184.1026,4155.8974,4258.9744,4270.7692
4213.3333,4128.2051,4147.6923,4305.1282,4511.2821,4031.7949,4166.6667,4160,4182.0513,4151.7949,4268.2051,4271.2821
4220.5128,4138.9744,4153.8462,4307.6923,4540.5128,4038.9744,4169.7436,4165.1282,4189.7436,4156.4103,4281.5385,4278.9744
4241.5385,4151.2821,4169.7436,4322.0513,4582.5641,4053.8462,4188.7179,4176.4103,4198.9744,4174.359,4307.1795,4312.3077
4237.4359,4143.5897,4167.6923,4324.6154,4600,4045.1282,4182.5641,4162.5641,4188.2051,4167.6923,4291.2821,4311.2821
4235.3846,4141.0256,4163.5897,4323.0769,4626.1538,4054.8718,4187.6923,4165.641,4181.5385,4154.8718,4284.1026,4309.2308
4223.5897,4128.7179,4148.2051,4306.1538,4639.4872,4054.359,4184.6154,4170.7692,4184.1026,4137.9487,4275.8974,4302.0513
4219.4872,4130.2564,4142.5641,4304.6154,4649.7436,4045.641,4183.0769,4178.4615,4187.1795,4141.5385,4262.0513,4305.1282
4238.4615,4143.0769,4154.359,4325.1282,4678.4615,4051.2821,4201.0256,4190.7692,4187.1795,4156.9231,4266.6667,4332.3077
4237.9487,4140,4152.8205,4324.1026,4697.9487,4047.1795,4198.9744,4180.5128,4181.5385,4146.6667,4260.5128,4332.3077
4234.8718,4130.2564,4163.0769,4325.641,4706.1538,4054.359,4206.6667,4181.0256,4186.1538,4151.2821,4254.359,4331.2821
4230.7692,4117.4359,4163.0769,4305.641,4706.6667,4049.2308,4201.5385,4175.3846,4184.6154,4154.8718,4235.3846,4323.0769
4223.0769,4119.4872,4146.1538,4277.9487,4725.641,4032.3077,4172.8205,4155.3846,4175.8974,4144.1026,4221.5385,4303.5897
4218.4615,4138.9744,4136.4103,4283.5897,4756.9231,4024.1026,4153.3333,4143.0769,4175.8974,4134.359,4218.4615,4293.3333
4195.8974,4141.0256,4121.5385,4272.3077,4784.1026,4004.6154,4129.2308,4126.6667,4170.7692,4116.4103,4180.5128,4258.9744
4187.6923,4124.1026,4126.6667,4259.4872,4829.7436,4005.641,4128.7179,4130.7692,4163.5897,4112.8205,4165.1282,4236.9231
4190.7692,4122.5641,4129.2308,4258.4615,4861.5385,4005.1282,4116.9231,4134.8718,4163.5897,4111.2821,4168.2051,4231.2821
4196.4103,4146.1538,4121.5385,4257.4359,4901.0256,3997.4359,4101.0256,4128.2051,4169.7436,4107.6923,4157.9487,4231.7949
4210.7692,4155.3846,4127.6923,4260.5128,4967.6923,4015.8974,4120,4136.4103,4175.3846,4112.3077,4168.2051,4247.6923
4202.0513,4145.1282,4125.1282,4249.2308,4995.8974,4017.4359,4115.3846,4132.8205,4172.3077,4101.0256,4168.7179,4236.9231
4197.9487,4144.6154,4127.1795,4250.2564,5005.1282,4022.0513,4113.3333,4132.3077,4171.7949,4098.4615,4168.2051,4231.7949
4195.8974,4144.6154,4118.4615,4233.8462,5019.4872,4026.6667,4118.9744,4131.7949,4170.2564,4097.9487,4161.0256,4227.6923
4191.2821,4141.0256,4112.3077,4220,5019.4872,4021.5385,4109.7436,4127.1795,4165.641,4090.7692,4146.1538,4210.2564
4203.0769,4143.5897,4133.3333,4249.7436,5017.4359,4029.7436,4116.4103,4133.8462,4167.1795,4099.4872,4152.3077,4218.9744
4189.2308,4144.1026,4127.6923,4236.9231,5006.1538,4016.4103,4106.6667,4124.1026,4165.1282,4096.9231,4143.5897,4213.8462
4181.0256,4147.6923,4118.4615,4211.7949,5000,4012.3077,4101.5385,4131.7949,4169.7436,4097.4359,4142.0513,4210.2564
4188.7179,4151.2821,4124.6154,4225.641,4993.8462,4025.1282,4108.7179,4139.4872,4172.3077,4100.5128,4145.641,4213.8462
4183.5897,4146.1538,4122.0513,4233.3333,4984.1026,4027.6923,4108.2051,4129.2308,4164.6154,4094.8718,4135.3846,4203.0769
4188.2051,4143.0769,4131.2821,4237.4359,4978.4615,4038.4615,4121.0256,4137.9487,4167.6923,4101.0256,4147.6923,4209.7436
4186.1538,4147.1795,4132.8205,4229.7436,4956.4103,4036.4103,4112.3077,4134.359,4166.6667,4094.8718,4132.8205,4201.0256
4184.1026,4152.3077,4124.6154,4223.0769,4953.3333,4043.0769,4110.7692,4128.7179,4160,4088.2051,4115.8974,4192.3077
4182.0513,4138.9744,4120,4226.1538,4956.4103,4046.6667,4118.9744,4128.7179,4163.0769,4088.7179,4124.6154,4195.3846
4169.7436,4132.3077,4109.7436,4220,4944.6154,4035.3846,4106.1538,4123.5897,4165.1282,4081.0256,4109.7436,4179.4872
4170.7692,4152.8205,4109.2308,4222.5641,4953.3333,4043.5897,4109.2308,4133.3333,4160,4088.7179,4105.641,4181.0256
4170.7692,4158.4615,4108.2051,4217.4359,4958.9744,4042.0513,4106.1538,4131.2821,4155.8974,4094.359,4111.7949,4186.6667
4177.9487,4145.1282,4117.4359,4215.8974,4960,4043.0769,4109.2308,4128.2051,4162.0513,4095.8974,4120,4189.7436
4182.0513,4139.4872,4121.5385,4216.4103,4960.5128,4047.1795,4114.359,4130.2564,4161.5385,4095.3846,4115.8974,4189.7436
4171.2821,4151.2821,4111.7949,4210.7692,4954.359,4032.3077,4092.3077,4120.5128,4152.3077,4092.3077,4098.9744,4179.4872
4178.4615,4157.4359,4123.5897,4217.9487,4956.9231,4033.8462,4092.3077,4125.1282,4157.4359,4103.0769,4111.7949,4196.4103
4172.8205,4141.5385,4125.1282,4195.8974,4950.7692,4035.3846,4101.5385,4127.1795,4161.0256,4095.8974,4105.641,4193.3333
4173.8462,4143.5897,4131.2821,4195.3846,4940.5128,4041.0256,4111.7949,4133.8462,4157.4359,4094.8718,4105.641,4186.6667
4188.7179,4153.3333,4142.5641,4222.5641,4921.0256,4045.1282,4117.4359,4141.0256,4158.9744,4107.6923,4123.5897,4202.5641
4170.7692,4145.1282,4128.7179,4204.6154,4901.0256,4031.2821,4103.0769,4127.6923,4157.4359,4093.3333,4102.0513,4186.6667
4167.6923,4140,4136.4103,4193.3333,4901.0256,4038.4615,4108.7179,4127.6923,4155.8974,4090.7692,4099.4872,4182.5641
4175.8974,4148.2051,4143.5897,4199.4872,4881.5385,4034.359,4107.1795,4124.1026,4152.8205,4093.8462,4108.2051,4183.5897
4167.1795,4158.9744,4137.4359,4201.0256,4880.5128,4027.6923,4105.641,4125.641,4150.2564,4090.2564,4107.1795,4174.359
4166.1538,4151.2821,4145.641,4208.2051,4900,4042.5641,4118.9744,4136.4103,4153.8462,4096.4103,4121.0256,4181.5385
4177.4359,4141.5385,4150.2564,4203.5897,4884.1026,4042.0513,4112.3077,4131.2821,4153.8462,4098.4615,4133.3333,4181.0256
4186.6667,4156.4103,4148.7179,4201.0256,4869.2308,4049.7436,4119.4872,4136.9231,4156.9231,4102.5641,4153.3333,4189.7436
4162.5641,4148.7179,4137.9487,4197.4359,4861.5385,4053.8462,4121.0256,4133.3333,4154.8718,4094.359,4144.6154,4180.5128
4155.8974,4121.0256,4143.5897,4199.4872,4844.6154,4045.641,4108.2051,4126.1538,4151.2821,4092.8205,4127.6923,4167.1795
4181.0256,4139.4872,4153.3333,4202.5641,4836.4103,4052.8205,4113.3333,4133.8462,4156.4103,4103.0769,4144.1026,4184.6154
4173.3333,4167.1795,4134.8718,4179.4872,4835.3846,4054.8718,4112.3077,4130.2564,4156.9231,4098.4615,4146.6667,4184.6154
4164.6154,4148.2051,4139.4872,4182.5641,4837.9487,4063.0769,4128.2051,4141.5385,4157.4359,4105.1282,4147.1795,4183.0769
4166.6667,4127.1795,4147.1795,4190.2564,4826.1538,4065.1282,4137.9487,4142.0513,4153.8462,4104.6154,4146.6667,4184.1026
4165.1282,4147.6923,4135.8974,4175.3846,4816.9231,4063.0769,4123.5897,4124.6154,4151.7949,4094.8718,4142.0513,4178.9744
4166.6667,4155.8974,4138.4615,4177.4359,4814.359,4076.9231,4128.2051,4128.2051,4155.3846,4097.9487,4145.641,4179.4872
4157.4359,4134.8718,4140.5128,4180.5128,4803.5897,4075.8974,4130.7692,4129.2308,4150.7692,4090.2564,4131.2821,4165.641
4172.3077,4137.9487,4154.359,4194.8718,4809.7436,4083.0769,4138.4615,4133.8462,4149.7436,4101.5385,4148.2051,4181.0256
4184.6154,4140,4162.5641,4183.0769,4801.5385,4083.0769,4141.5385,4138.4615,4151.2821,4111.7949,4168.7179,4193.3333
4170.2564,4134.8718,4152.8205,4155.8974,4776.9231,4067.6923,4127.1795,4133.3333,4151.7949,4102.0513,4153.8462,4178.4615
4177.9487,4151.7949,4157.9487,4183.0769,4787.1795,4075.8974,4125.641,4135.8974,4155.8974,4110.2564,4156.4103,4188.2051
4180,4153.3333,4154.8718,4196.9231,4784.6154,4076.4103,4120.5128,4133.3333,4153.3333,4109.7436,4154.359,4184.6154
4166.1538,4123.5897,4151.2821,4176.4103,4756.4103,4072.8205,4130.7692,4135.3846,4149.2308,4098.4615,4148.2051,4174.359
4166.6667,4121.0256,4152.3077,4163.0769,4746.6667,4078.9744,4136.4103,4128.7179,4151.7949,4095.3846,4147.6923,4176.4103
4170.7692,4155.8974,4147.6923,4164.6154,4760,4086.1538,4126.6667,4122.5641,4152.8205,4098.4615,4138.4615,4171.2821
4174.8718,4153.3333,4157.4359,4184.6154,4763.0769,4095.3846,4147.6923,4141.0256,4154.359,4109.7436,4152.8205,4180.5128
4168.2051,4127.1795,4153.3333,4178.9744,4742.0513,4086.6667,4152.8205,4137.4359,4151.7949,4101.0256,4154.359,4176.4103
4163.0769,4137.4359,4136.4103,4162.5641,4744.1026,4083.5897,4139.4872,4124.6154,4149.2308,4092.3077,4137.4359,4162.0513
4165.1282,4138.9744,4138.4615,4174.359,4741.5385,4084.1026,4130.2564,4129.7436,4148.7179,4099.4872,4133.3333,4156.9231
4165.1282,4133.8462,4146.6667,4188.7179,4721.0256,4074.8718,4122.0513,4129.2308,4146.6667,4098.9744,4137.4359,4152.3077
4169.2308,4153.8462,4143.0769,4186.1538,4730.7692,4087.6923,4140,4132.3077,4149.7436,4095.3846,4143.0769,4159.4872
4154.8718,4137.9487,4132.3077,4164.6154,4720.5128,4083.0769,4137.9487,4128.2051,4147.6923,4085.1282,4124.1026,4146.6667
4156.4103,4118.4615,4142.0513,4174.8718,4694.8718,4077.4359,4128.2051,4122.5641,4143.5897,4092.8205,4120.5128,4139.4872
4162.5641,4147.1795,4140,4185.641,4695.3846,4090.7692,4135.3846,4125.641,4146.6667,4104.1026,4134.359,4149.7436
4132.8205,4149.7436,4114.359,4152.8205,4682.5641,4082.0513,4125.641,4122.5641,4143.5897,4086.1538,4112.3077,4129.2308
4131.7949,4111.7949,4129.7436,4156.4103,4659.4872,4081.0256,4129.7436,4125.641,4142.0513,4082.5641,4102.5641,4124.6154
4146.1538,4118.9744,4137.4359,4173.3333,4645.1282,4085.641,4131.7949,4122.5641,4142.0513,4091.7949,4106.1538,4130.2564
4137.9487,4155.8974,4117.9487,4166.1538,4642.0513,4082.5641,4121.5385,4121.5385,4139.4872,4091.7949,4116.4103,4126.6667
4138.9744,4140.5128,4129.2308,4168.7179,4607.6923,4075.3846,4120.5128,4125.641,4145.1282,4093.8462,4131.2821,4136.9231
4149.7436,4117.4359,4145.1282,4175.3846,4526.6667,4061.5385,4115.3846,4117.4359,4146.1538,4095.3846,4110.7692,4138.9744
4156.9231,4142.0513,4142.5641,4180,4455.3846,4069.2308,4122.5641,4122.5641,4142.5641,4100.5128,4103.5897,4141.5385
4144.6154,4152.8205,4130.7692,4166.6667,4408.2051,4067.6923,4124.1026,4121.0256,4143.5897,4095.8974,4119.4872,4140.5128
4137.9487,4137.4359,4131.7949,4157.4359,4391.2821,4060.5128,4118.9744,4117.4359,4148.2051,4094.8718,4122.5641,4139.4872
4145.641,4130.7692,4141.5385,4166.6667,4396.9231,4071.2821,4128.7179,4126.6667,4150.2564,4099.4872,4110.7692,4137.9487
4136.4103,4136.4103,4127.1795,4151.7949,4429.2308,4067.1795,4121.5385,4116.4103,4144.6154,4089.2308,4090.7692,4122.0513
4137.9487,4145.641,4124.6154,4139.4872,4528.7179,4068.2051,4122.0513,4119.4872,4143.5897,4094.8718,4102.0513,4130.2564
4142.0513,4132.8205,4138.9744,4150.7692,4620.5128,4071.7949,4125.641,4125.641,4140,4098.4615,4104.1026,4132.3077
4134.8718,4127.6923,4141.5385,4161.0256,4648.2051,4065.641,4113.8462,4115.8974,4138.9744,4086.6667,4084.1026,4113.8462
4138.9744,4149.7436,4139.4872,4160.5128,4679.4872,4066.6667,4112.3077,4117.9487,4143.0769,4091.2821,4093.3333,4125.1282
4138.9744,4149.7436,4136.4103,4157.4359,4716.9231,4067.1795,4112.8205,4120.5128,4136.4103,4092.3077,4099.4872,4133.3333
4135.8974,4124.1026,4146.1538,4168.7179,4710.2564,4083.0769,4129.2308,4121.5385,4136.9231,4091.7949,4094.359,4127.6923
4123.0769,4120.5128,4139.4872,4162.5641,4664.1026,4087.1795,4132.3077,4112.3077,4140.5128,4087.1795,4082.0513,4114.359
4121.5385,4146.1538,4124.1026,4151.2821,4634.8718,4073.8462,4114.359,4103.5897,4136.4103,4082.5641,4075.8974,4107.6923
4145.641,4151.7949,4138.9744,4171.2821,4634.359,4082.5641,4122.0513,4118.9744,4137.9487,4096.4103,4095.8974,4129.2308
4146.1538,4132.3077,4145.641,4171.2821,4611.2821,4083.0769,4122.0513,4118.9744,4140,4101.5385,4097.9487,4132.3077
4146.1538,4133.3333,4153.3333,4165.641,4586.6667,4079.4872,4115.8974,4114.359,4138.4615,4104.1026,4096.9231,4130.2564
4149.7436,4141.5385,4158.4615,4172.3077,4586.6667,4088.2051,4125.641,4121.0256,4140,4109.2308,4105.1282,4138.4615
4131.2821,4132.8205,4141.0256,4164.1026,4580.5128,4090.7692,4130.2564,4123.0769,4140.5128,4103.0769,4093.3333,4127.1795
4140,4134.8718,4153.8462,4168.2051,4556.9231,4098.9744,4141.0256,4132.8205,4142.0513,4109.2308,4098.4615,4132.8205
4156.4103,4145.1282,4174.359,4170.7692,4528.7179,4103.0769,4150.2564,4138.4615,4146.6667,4115.8974,4114.8718,4145.1282
4150.2564,4138.9744,4167.1795,4164.6154,4510.2564,4103.0769,4151.2821,4132.3077,4151.7949,4113.3333,4118.4615,4140.5128
4148.2051,4128.2051,4157.9487,4161.0256,4477.9487,4097.4359,4139.4872,4123.0769,4150.2564,4109.2308,4110.7692,4131.7949
4153.8462,4129.2308,4162.5641,4147.1795,4453.8462,4087.1795,4125.1282,4124.1026,4143.0769,4107.1795,4103.5897,4127.6923
4156.4103,4135.3846,4163.5897,4151.7949,4468.7179,4092.3077,4132.8205,4130.7692,4144.1026,4112.8205,4115.3846,4136.4103
4150.2564,4128.7179,4152.3077,4152.3077,4445.641,4084.1026,4127.6923,4117.4359,4143.5897,4103.0769,4110.7692,4126.6667
4153.8462,4134.359,4161.5385,4130.7692,4397.4359,4078.9744,4126.1538,4118.4615,4141.0256,4098.4615,4100,4120
4149.7436,4149.2308,4158.9744,4118.4615,4400,4091.2821,4140.5128,4131.2821,4142.0513,4105.1282,4097.4359,4127.6923
4126.1538,4144.6154,4132.3077,4119.4872,4414.359,4084.6154,4132.3077,4118.9744,4136.4103,4095.3846,4082.5641,4108.7179
4135.8974,4132.8205,4144.1026,4131.7949,4394.359,4080.5128,4129.7436,4116.9231,4137.9487,4096.4103,4090.2564,4106.1538
4140,4129.7436,4151.2821,4127.6923,4360,4075.8974,4119.4872,4116.4103,4142.5641,4095.8974,4092.8205,4110.7692
4116.9231,4132.3077,4126.6667,4114.359,4341.5385,4069.7436,4103.5897,4108.7179,4137.4359,4084.1026,4075.8974,4096.4103
4110.7692,4128.2051,4123.5897,4109.7436,4310.2564,4071.2821,4108.7179,4109.7436,4135.3846,4081.5385,4069.2308,4087.1795
4110.7692,4127.6923,4125.641,4102.5641,4255.8974,4061.0256,4097.4359,4099.4872,4134.359,4074.359,4055.3846,4075.8974
4115.3846,4135.8974,4126.1538,4110.2564,4222.0513,4060.5128,4093.3333,4096.4103,4135.3846,4082.5641,4058.9744,4081.5385
4112.8205,4124.6154,4133.3333,4109.7436,4207.1795,4059.4872,4099.4872,4100.5128,4137.9487,4094.359,4070.7692,4089.2308
4110.2564,4116.4103,4146.6667,4110.2564,4208.2051,4050.7692,4091.2821,4094.8718,4134.8718,4089.7436,4058.4615,4085.641
4120.5128,4132.3077,4151.7949,4126.1538,4212.3077,4055.3846,4095.3846,4095.3846,4131.7949,4085.641,4048.2051,4090.2564
4108.7179,4145.1282,4130.2564,4112.8205,4195.3846,4053.3333,4099.4872,4096.4103,4133.3333,4085.641,4043.5897,4086.6667
4105.1282,4130.2564,4134.359,4108.7179,4186.1538,4056.9231,4104.1026,4104.6154,4137.4359,4097.9487,4053.3333,4094.8718
4115.8974,4100,4160,4111.2821,4186.6667,4055.8974,4105.1282,4106.1538,4132.8205,4100,4047.6923,4094.359
4112.8205,4119.4872,4152.3077,4095.3846,4203.5897,4044.6154,4102.0513,4100,4128.7179,4092.3077,4033.8462,4075.8974
4113.3333,4163.5897,4136.9231,4102.0513,4240.5128,4049.2308,4109.7436,4106.1538,4133.3333,4100.5128,4053.3333,4083.5897
4116.4103,4146.1538,4141.5385,4120.5128,4242.5641,4044.1026,4104.6154,4107.6923,4132.3077,4103.5897,4063.0769,4090.2564
4117.4359,4116.4103,4151.7949,4118.9744,4228.7179,4038.4615,4105.1282,4108.2051,4133.3333,4106.1538,4060.5128,4086.6667
4106.6667,4136.4103,4134.8718,4094.359,4241.0256,4041.5385,4107.6923,4102.0513,4132.3077,4105.641,4058.4615,4081.0256
4095.3846,4135.8974,4127.1795,4088.2051,4232.8205,4034.359,4101.5385,4094.8718,4122.0513,4098.4615,4047.1795,4069.2308
4111.7949,4107.6923,4152.3077,4111.2821,4194.8718,4034.8718,4107.6923,4104.1026,4123.5897,4102.0513,4051.2821,4076.4103
4111.7949,4134.359,4141.5385,4099.4872,4188.2051,4037.4359,4099.4872,4100,4132.3077,4098.9744,4056.4103,4079.4872
4104.1026,4164.1026,4128.2051,4092.8205,4210.2564,4045.1282,4095.8974,4101.5385,4134.8718,4097.9487,4065.1282,4080
4111.2821,4135.3846,4144.6154,4117.4359,4174.8718,4044.6154,4103.0769,4108.2051,4130.7692,4101.0256,4073.3333,4086.6667
4108.7179,4131.7949,4134.359,4110.2564,4089.2308,4032.8205,4095.3846,4096.9231,4123.5897,4090.7692,4055.3846,4078.4615
4097.4359,4149.2308,4113.8462,4092.3077,3986.1538,4041.0256,4097.9487,4094.8718,4118.9744,4085.641,4045.1282,4067.1795
4082.0513,4121.0256,4111.7949,4087.6923,3846.1538,4028.7179,4089.7436,4090.2564,4117.4359,4079.4872,4041.0256,4052.3077
4086.1538,4122.5641,4115.3846,4095.8974,3846.1538,4005.641,4070.2564,4082.5641,4119.4872,4081.0256,4038.9744,4052.3077
4090.7692,4153.3333,4110.7692,4108.2051,4070.2564,4010.2564,4067.6923,4083.0769,4114.8718,4084.6154,4034.8718,4054.359
4077.9487,4127.6923,4107.6923,4108.7179,4271.2821,4013.3333,4069.2308,4081.5385,4106.6667,4075.8974,4023.5897,4037.4359
4085.641,4124.6154,4113.8462,4109.2308,4434.8718,4016.9231,4079.4872,4085.641,4111.7949,4076.9231,4033.8462,4045.1282
4087.1795,4153.8462,4104.1026,4110.2564,4631.7949,4017.9487,4076.9231,4084.1026,4116.9231,4074.8718,4035.3846,4048.2051
4080.5128,4130.2564,4106.6667,4118.9744,4490.2564,4016.9231,4072.3077,4084.1026,4115.8974,4074.8718,4033.8462,4036.9231
4089.7436,4108.7179,4123.0769,4123.0769,4013.8462,4018.4615,4082.5641,4092.3077,4112.3077,4082.0513,4045.641,4045.1282
4086.6667,4149.2308,4106.1538,4112.3077,3878.4615,4014.359,4081.5385,4089.2308,4109.2308,4076.9231,4041.0256,4048.2051
4082.0513,4169.2308,4097.4359,4116.9231,4023.5897,4021.0256,4084.6154,4090.2564,4115.8974,4079.4872,4044.1026,4049.7436
4076.9231,4130.7692,4103.0769,4118.4615,3844.1026,4016.9231,4081.5385,4087.1795,4114.8718,4078.9744,4045.1282,4040
4074.8718,4118.9744,4099.4872,4113.8462,3564.1026,4006.1538,4070.7692,4083.5897,4104.6154,4074.8718,4033.3333,4027.6923
4084.1026,4137.4359,4106.1538,4122.5641,3572.3077,4011.2821,4077.9487,4088.7179,4106.1538,4083.5897,4038.4615,4040
4078.9744,4132.8205,4106.6667,4115.3846,3669.2308,4005.641,4074.359,4085.641,4109.2308,4081.0256,4033.8462,4034.359
4080.5128,4129.2308,4105.1282,4117.9487,3749.7436,4006.1538,4083.5897,4096.4103,4108.7179,4080.5128,4037.9487,4034.359
4081.0256,4136.9231,4102.5641,4137.4359,3814.8718,4007.1795,4091.7949,4101.0256,4108.7179,4078.4615,4047.1795,4045.641
4069.7436,4141.5385,4100.5128,4141.5385,3796.4103,3996.4103,4076.4103,4086.1538,4105.1282,4072.8205,4037.9487,4040
4070.2564,4134.8718,4104.1026,4148.2051,3790.2564,3994.8718,4068.7179,4081.5385,4100,4082.0513,4035.3846,4036.4103
4067.6923,4127.6923,4092.8205,4145.641,3817.4359,3990.2564,4061.5385,4076.4103,4091.2821,4076.9231,4030.7692,4026.1538
4069.7436,4140,4091.2821,4142.0513,3813.8462,3990.2564,4072.3077,4079.4872,4092.3077,4069.2308,4030.2564,4022.5641
4069.2308,4134.359,4098.9744,4146.6667,3773.8462,3991.7949,4080,4083.5897,4098.9744,4071.2821,4029.2308,4022.0513
4065.1282,4122.0513,4097.9487,4151.7949,3718.9744,3993.8462,4070.7692,4086.1538,4095.3846,4071.7949,4026.6667,4022.5641
4074.8718,4144.1026,4092.3077,4151.7949,3676.9231,4004.6154,4082.0513,4096.4103,4095.3846,4075.3846,4036.9231,4036.9231
4067.1795,4147.1795,4080,4139.4872,3647.1795,3996.9231,4089.7436,4094.8718,4099.4872,4071.2821,4031.7949,4029.2308
4066.6667,4122.5641,4092.3077,4151.7949,3625.1282,3999.4872,4091.2821,4096.9231,4100.5128,4075.3846,4036.4103,4026.6667
4079.4872,4124.6154,4105.1282,4153.3333,3598.4615,4007.1795,4082.0513,4091.7949,4095.8974,4077.9487,4047.6923,4038.4615
4077.9487,4142.5641,4092.3077,4120,3599.4872,4000.5128,4067.1795,4076.9231,4092.3077,4071.7949,4040,4032.3077
4073.3333,4138.9744,4090.2564,4105.641,3635.8974,4010.2564,4078.4615,4087.1795,4097.9487,4077.4359,4045.1282,4032.8205
4064.1026,4137.4359,4086.6667,4093.8462,3644.6154,4016.9231,4092.8205,4097.4359,4102.5641,4076.4103,4056.4103,4033.3333
4063.0769,4136.9231,4085.641,4093.3333,3631.2821,4018.9744,4099.4872,4097.4359,4102.0513,4074.8718,4057.9487,4033.8462
4070.2564,4112.3077,4095.8974,4102.0513,3623.0769,4021.0256,4092.8205,4093.3333,4095.8974,4075.8974,4047.1795,4034.359
4071.7949,4119.4872,4093.8462,4087.6923,3626.6667,4021.0256,4085.641,4092.3077,4092.8205,4075.3846,4043.0769,4030.2564
4073.3333,4152.3077,4091.2821,4087.1795,3643.0769,4033.3333,4098.9744,4101.5385,4100.5128,4084.1026,4063.5897,4041.5385
4064.6154,4144.6154,4084.6154,4087.6923,3651.2821,4025.641,4083.5897,4093.8462,4100.5128,4077.4359,4048.7179,4030.7692
4073.3333,4123.0769,4086.6667,4080.5128,3662.5641,4009.7436,4067.1795,4085.1282,4093.8462,4070.7692,4030.7692,4018.9744
4092.8205,4122.0513,4098.9744,4088.7179,3670.7692,4012.8205,4085.1282,4092.3077,4098.4615,4082.5641,4058.9744,4038.4615
4085.1282,4135.8974,4098.4615,4095.8974,3661.5385,4013.8462,4088.2051,4093.8462,4105.641,4085.1282,4069.2308,4046.1538
4084.1026,4152.3077,4096.9231,4097.4359,3683.0769,4018.4615,4089.2308,4097.4359,4105.1282,4083.0769,4067.1795,4046.6667
4085.641,4143.0769,4091.7949,4086.1538,3710.2564,4020.5128,4093.8462,4096.4103,4096.4103,4077.9487,4068.7179,4041.5385
4078.4615,4117.9487,4094.8718,4082.0513,3698.9744,4024.1026,4095.3846,4094.8718,4095.3846,4075.8974,4063.5897,4034.8718
4078.4615,4119.4872,4101.5385,4083.0769,3680,4032.8205,4098.9744,4097.9487,4100.5128,4080.5128,4062.0513,4038.4615
4082.5641,4143.0769,4097.4359,4078.9744,3684.6154,4029.7436,4091.7949,4094.359,4095.3846,4082.0513,4059.4872,4037.9487
4095.8974,4147.6923,4107.1795,4091.2821,3709.2308,4041.0256,4096.9231,4102.5641,4094.8718,4093.8462,4072.8205,4052.3077
4092.8205,4129.7436,4110.2564,4085.641,3707.6923,4047.1795,4102.5641,4109.2308,4100,4095.8974,4075.8974,4055.8974
4084.1026,4127.6923,4107.6923,4083.5897,3695.8974,4036.9231,4095.8974,4102.0513,4100.5128,4094.359,4070.2564,4050.7692
4089.7436,4134.8718,4116.9231,4109.7436,3713.8462,4031.7949,4093.8462,4095.8974,4102.0513,4101.0256,4081.0256,4058.4615
4087.6923,4129.7436,4111.7949,4106.1538,3738.9744,4026.1538,4090.2564,4092.8205,4101.0256,4093.3333,4079.4872,4049.7436
4097.9487,4138.9744,4113.3333,4088.7179,3760,4031.7949,4096.4103,4099.4872,4101.0256,4097.4359,4083.0769,4057.9487
4106.1538,4146.6667,4120,4097.4359,3763.5897,4031.2821,4091.2821,4095.3846,4099.4872,4102.5641,4087.6923,4073.8462
4092.8205,4124.6154,4112.8205,4109.2308,3753.8462,4029.7436,4086.6667,4092.3077,4100.5128,4092.8205,4080.5128,4058.9744
4086.6667,4107.6923,4108.2051,4100.5128,3755.3846,4040.5128,4100.5128,4101.5385,4101.0256,4090.7692,4076.9231,4049.7436
4087.1795,4134.8718,4105.1282,4090.7692,3763.0769,4039.4872,4092.8205,4089.7436,4094.359,4086.1538,4068.2051,4046.6667
4094.359,4162.0513,4104.6154,4111.2821,3780.5128,4053.3333,4102.0513,4092.3077,4096.9231,4094.8718,4077.4359,4050.2564
4099.4872,4141.5385,4102.5641,4125.1282,3791.7949,4063.0769,4122.5641,4108.2051,4102.0513,4110.7692,4088.7179,4056.4103
4103.0769,4130.2564,4100,4113.3333,3798.9744,4049.2308,4113.8462,4107.6923,4099.4872,4111.2821,4083.5897,4058.4615
4117.4359,4146.6667,4108.7179,4121.0256,3808.7179,4056.4103,4117.4359,4109.2308,4100,4117.9487,4096.4103,4073.3333
4118.9744,4143.5897,4112.3077,4133.3333,3806.1538,4063.0769,4124.6154,4111.7949,4099.4872,4124.6154,4105.1282,4080
4119.4872,4127.6923,4120.5128,4136.4103,3812.8205,4055.8974,4121.5385,4116.9231,4097.4359,4125.641,4102.5641,4081.5385
4118.9744,4121.5385,4122.5641,4127.6923,3812.8205,4049.2308,4112.3077,4116.4103,4099.4872,4114.8718,4094.359,4072.8205
4110.7692,4139.4872,4105.641,4112.3077,3804.6154,4046.6667,4102.5641,4102.0513,4100,4103.5897,4082.5641,4061.5385
4114.8718,4156.4103,4103.5897,4120,3820.5128,4051.7949,4100,4096.9231,4100,4109.7436,4088.7179,4072.8205
4109.7436,4139.4872,4104.6154,4118.9744,3832.3077,4041.0256,4082.0513,4093.3333,4097.4359,4108.7179,4084.1026,4068.2051
4111.2821,4137.9487,4104.6154,4108.2051,3838.4615,4035.8974,4077.9487,4091.7949,4096.4103,4104.6154,4075.3846,4062.5641
4114.8718,4146.6667,4106.6667,4108.2051,3846.6667,4044.6154,4092.8205,4095.8974,4099.4872,4106.1538,4078.9744,4068.2051
4108.2051,4135.8974,4113.3333,4113.8462,3866.6667,4055.3846,4109.7436,4109.2308,4101.5385,4107.6923,4085.641,4069.2308
4139.4872,4148.7179,4148.2051,4151.7949,3907.1795,4089.2308,4154.8718,4140,4108.7179,4132.8205,4122.0513,4106.6667
4163.5897,4160,4163.0769,4172.3077,3925.1282,4102.5641,4172.3077,4142.0513,4111.2821,4146.1538,4142.0513,4140
4144.6154,4147.1795,4151.2821,4159.4872,3931.7949,4090.7692,4152.3077,4127.1795,4109.2308,4136.4103,4134.8718,4131.7949
4137.4359,4155.3846,4150.2564,4160.5128,3973.8462,4092.8205,4154.359,4131.2821,4110.2564,4131.2821,4139.4872,4126.1538
4143.5897,4160.5128,4148.2051,4156.4103,4011.2821,4090.2564,4159.4872,4131.7949,4106.6667,4125.641,4130.7692,4125.1282
4149.7436,4143.5897,4154.359,4134.8718,4018.4615,4083.0769,4161.0256,4136.4103,4106.6667,4130.2564,4128.7179,4132.3077
4146.1538,4142.0513,4154.8718,4104.6154,4022.5641,4076.9231,4158.9744,4142.0513,4109.2308,4131.7949,4134.359,4132.8205
4140,4148.2051,4147.1795,4077.4359,4029.7436,4084.6154,4161.5385,4142.5641,4107.6923,4126.6667,4130.7692,4123.5897
4144.6154,4132.8205,4153.8462,4059.4872,4021.0256,4094.8718,4169.2308,4143.5897,4108.2051,4126.1538,4130.2564,4127.6923
4141.5385,4134.8718,4154.359,4043.5897,4012.3077,4092.8205,4158.9744,4137.9487,4108.7179,4122.0513,4129.2308,4128.7179
4140,4150.2564,4154.359,4036.9231,4020,4107.6923,4166.6667,4143.0769,4110.7692,4123.5897,4138.4615,4131.7949
4132.3077,4132.3077,4154.359,4021.0256,4002.5641,4107.1795,4168.7179,4142.0513,4110.2564,4115.8974,4134.359,4126.6667
4133.8462,4132.8205,4154.8718,4016.9231,3986.1538,4089.7436,4155.3846,4136.9231,4109.7436,4111.2821,4124.1026,4123.0769
4148.2051,4161.5385,4156.9231,4029.2308,3993.8462,4099.4872,4165.641,4146.6667,4111.7949,4121.5385,4136.9231,4137.9487
4142.0513,4153.3333,4152.8205,4020.5128,3983.5897,4100,4169.7436,4143.0769,4110.7692,4118.4615,4138.4615,4132.3077
4146.1538,4128.7179,4162.5641,4024.1026,3984.1026,4093.3333,4158.4615,4132.3077,4111.2821,4117.9487,4136.4103,4131.7949
4147.6923,4141.0256,4154.8718,4028.7179,4003.5897,4094.359,4148.2051,4128.7179,4109.7436,4118.4615,4132.8205,4134.359
4143.0769,4147.6923,4146.6667,4018.4615,4005.1282,4096.4103,4151.2821,4134.8718,4107.1795,4117.9487,4139.4872,4132.3077
4156.9231,4131.2821,4163.0769,4026.1538,4004.1026,4098.9744,4162.0513,4142.0513,4109.7436,4128.2051,4154.8718,4145.641
4147.6923,4140.5128,4151.7949,4023.5897,4018.4615,4088.2051,4153.3333,4135.8974,4109.7436,4121.5385,4135.3846,4132.8205
4133.3333,4137.4359,4144.1026,4022.5641,4023.5897,4084.1026,4152.3077,4137.4359,4110.2564,4116.9231,4123.5897,4117.4359
4144.6154,4117.9487,4158.4615,4028.2051,4003.0769,4084.6154,4152.3077,4133.8462,4108.7179,4120,4134.359,4126.1538
4153.3333,4147.6923,4153.3333,4018.9744,4005.1282,4083.0769,4143.5897,4129.7436,4107.6923,4120,4131.7949,4132.3077
4145.1282,4166.1538,4144.6154,4020,4028.7179,4092.8205,4152.8205,4137.9487,4113.3333,4120.5128,4140,4135.3846
4131.2821,4129.2308,4145.1282,4018.4615,4017.4359,4091.7949,4148.7179,4127.1795,4110.2564,4112.8205,4142.5641,4123.5897
4140.5128,4123.5897,4152.8205,4016.4103,4009.7436,4093.3333,4145.641,4126.1538,4106.1538,4117.4359,4143.5897,4127.1795
4142.0513,4139.4872,4148.7179,4014.8718,4021.5385,4096.4103,4152.8205,4138.4615,4107.6923,4117.9487,4142.5641,4129.7436
4123.0769,4130.7692,4136.4103,4008.7179,4016.4103,4091.7949,4152.3077,4130.7692,4104.6154,4101.0256,4126.6667,4104.6154
4130.2564,4132.8205,4142.5641,4022.0513,4014.8718,4103.0769,4160.5128,4132.3077,4107.1795,4106.6667,4135.8974,4109.2308
4139.4872,4134.359,4150.2564,4025.1282,4019.4872,4103.0769,4154.359,4138.9744,4111.7949,4117.9487,4146.1538,4124.1026
4137.4359,4131.2821,4149.2308,4018.9744,4030.2564,4099.4872,4153.8462,4136.9231,4108.2051,4112.3077,4131.2821,4120.5128
4130.7692,4135.8974,4139.4872,4014.8718,4045.1282,4100,4157.9487,4131.7949,4105.1282,4106.1538,4119.4872,4113.8462
4121.0256,4131.2821,4131.7949,4009.2308,4048.2051,4092.3077,4139.4872,4125.1282,4108.2051,4107.1795,4119.4872,4105.641
4127.1795,4135.3846,4143.5897,4018.4615,4056.4103,4097.4359,4140.5128,4128.2051,4113.3333,4114.8718,4132.8205,4111.7949
4125.641,4138.9744,4143.0769,4017.9487,4059.4872,4090.7692,4144.6154,4126.1538,4109.7436,4107.6923,4127.6923,4109.7436
4122.0513,4131.2821,4136.9231,4015.8974,4065.1282,4085.1282,4142.5641,4129.2308,4107.1795,4105.1282,4116.9231,4105.641
4129.7436,4130.7692,4146.1538,4024.6154,4077.9487,4096.4103,4153.3333,4138.4615,4109.7436,4114.359,4125.641,4117.4359
4134.359,4141.5385,4154.359,4028.2051,4082.0513,4099.4872,4164.1026,4137.9487,4110.2564,4116.4103,4130.7692,4124.1026
4147.1795,4150.7692,4164.1026,4034.8718,4087.1795,4105.1282,4177.4359,4140.5128,4114.359,4123.5897,4143.5897,4136.4103
4136.9231,4146.1538,4151.7949,4024.1026,4085.1282,4102.5641,4168.2051,4135.8974,4112.3077,4114.8718,4137.9487,4125.641
4120.5128,4137.4359,4141.0256,4015.3846,4085.1282,4101.0256,4159.4872,4137.9487,4109.7436,4105.641,4129.2308,4111.2821
4133.3333,4129.2308,4161.5385,4029.7436,4083.0769,4107.6923,4174.359,4147.1795,4113.3333,4116.9231,4140,4120.5128
4144.1026,4134.359,4173.3333,4037.4359,4070.2564,4100,4168.2051,4137.9487,4115.8974,4124.1026,4138.9744,4123.0769
4143.0769,4153.8462,4168.2051,4040.5128,4079.4872,4098.9744,4160,4138.4615,4117.4359,4130.2564,4150.7692,4134.359
4127.1795,4141.5385,4150.7692,4027.1795,4087.1795,4097.4359,4151.7949,4137.4359,4113.3333,4124.1026,4141.5385,4129.7436
4118.4615,4117.9487,4144.1026,4016.4103,4078.9744,4098.4615,4146.6667,4129.2308,4110.7692,4114.359,4120.5128,4111.2821
4128.2051,4126.6667,4159.4872,4035.3846,4078.9744,4108.2051,4156.9231,4132.8205,4114.359,4122.0513,4140.5128,4118.9744
4127.1795,4144.6154,4159.4872,4040.5128,4084.6154,4101.5385,4149.7436,4131.7949,4112.3077,4121.5385,4143.0769,4124.1026
4123.5897,4137.9487,4151.2821,4023.0769,4083.5897,4097.9487,4148.2051,4133.3333,4109.7436,4118.4615,4122.5641,4117.4359
4115.8974,4122.5641,4146.1538,4011.2821,4066.6667,4091.7949,4150.7692,4130.2564,4110.7692,4118.4615,4115.8974,4108.7179
4115.8974,4138.4615,4148.2051,4029.2308,4076.4103,4081.0256,4145.1282,4123.0769,4109.7436,4121.5385,4129.2308,4114.359
4124.1026,4148.2051,4149.2308,4048.2051,4106.1538,4083.5897,4144.6154,4126.6667,4108.7179,4122.0513,4136.9231,4123.0769
4113.8462,4121.0256,4141.5385,4025.641,4096.4103,4080.5128,4134.359,4122.5641,4104.6154,4109.2308,4117.9487,4105.641
4124.6154,4127.1795,4157.4359,4029.2308,4086.6667,4090.2564,4143.5897,4126.6667,4107.6923,4117.9487,4125.1282,4115.8974
4138.9744,4154.359,4165.1282,4052.3077,4100,4102.0513,4157.4359,4133.3333,4113.8462,4128.7179,4146.1538,4138.4615
4134.8718,4144.6154,4154.359,4047.6923,4105.1282,4100.5128,4154.8718,4136.4103,4113.3333,4125.641,4150.2564,4135.3846
4150.2564,4127.6923,4171.2821,4063.5897,4097.9487,4109.2308,4170.7692,4150.2564,4115.8974,4137.4359,4166.6667,4151.7949
4152.3077,4133.8462,4175.3846,4072.8205,4093.8462,4110.7692,4182.5641,4147.6923,4118.4615,4138.4615,4167.6923,4158.9744
4136.4103,4140.5128,4163.0769,4051.7949,4111.2821,4110.7692,4178.9744,4138.4615,4116.4103,4131.2821,4155.3846,4143.0769
4129.7436,4134.359,4158.9744,4039.4872,4119.4872,4109.2308,4166.6667,4135.8974,4112.8205,4128.2051,4144.1026,4129.2308
4127.1795,4130.7692,4157.4359,4043.0769,4114.359,4099.4872,4156.4103,4136.4103,4112.3077,4128.2051,4135.3846,4120.5128
4130.7692,4126.6667,4164.6154,4043.5897,4119.4872,4103.0769,4163.0769,4143.0769,4118.4615,4138.9744,4148.7179,4126.6667
4126.1538,4129.2308,4158.4615,4026.6667,4116.4103,4098.9744,4155.8974,4135.8974,4117.4359,4137.4359,4147.1795,4121.5385
4127.1795,4145.1282,4156.4103,4034.359,4119.4872,4095.8974,4154.8718,4134.359,4116.4103,4138.9744,4143.0769,4122.5641
4128.2051,4143.0769,4164.6154,4049.7436,4122.5641,4090.7692,4157.9487,4135.3846,4119.4872,4140.5128,4151.2821,4127.6923
4117.4359,4123.0769,4157.4359,4035.8974,4108.2051,4080.5128,4144.1026,4127.6923,4118.4615,4128.2051,4144.1026,4113.3333
4117.4359,4125.641,4146.6667,4024.1026,4108.2051,4096.4103,4154.8718,4137.4359,4115.8974,4128.2051,4134.359,4112.8205
4108.7179,4138.4615,4135.8974,4013.3333,4114.8718,4101.5385,4163.0769,4134.359,4111.7949,4127.1795,4117.4359,4108.2051
4108.7179,4141.0256,4140.5128,4019.4872,4118.4615,4092.3077,4152.3077,4126.1538,4111.7949,4122.0513,4111.2821,4098.9744
4117.9487,4136.4103,4148.2051,4042.5641,4123.5897,4090.7692,4143.5897,4136.9231,4113.3333,4121.5385,4113.3333,4101.0256
4110.7692,4131.7949,4146.1538,4039.4872,4120,4086.1538,4134.8718,4135.3846,4112.8205,4122.5641,4103.5897,4098.4615
4115.3846,4133.3333,4155.3846,4036.9231,4117.9487,4087.1795,4143.5897,4128.2051,4115.8974,4128.2051,4109.7436,4107.1795
4117.9487,4137.4359,4149.2308,4047.1795,4117.9487,4081.5385,4147.6923,4126.1538,4112.8205,4120,4104.6154,4105.641
4112.8205,4142.5641,4140,4051.7949,4131.2821,4081.0256,4143.0769,4131.2821,4108.7179,4117.9487,4097.9487,4103.0769
4108.7179,4130.2564,4143.0769,4038.4615,4140.5128,4089.7436,4143.5897,4132.3077,4114.8718,4125.641,4105.641,4111.2821
4098.4615,4122.0513,4135.8974,4024.1026,4126.1538,4077.9487,4137.9487,4122.0513,4115.8974,4114.359,4092.3077,4100.5128
4104.6154,4138.4615,4140,4043.0769,4133.3333,4077.4359,4144.1026,4126.1538,4111.7949,4112.8205,4083.0769,4102.0513
4110.7692,4135.3846,4150.2564,4040,4139.4872,4084.1026,4147.6923,4132.3077,4113.3333,4123.5897,4084.6154,4114.8718
4111.2821,4122.5641,4155.3846,4018.9744,4123.5897,4074.8718,4144.1026,4131.7949,4118.9744,4129.2308,4091.2821,4121.0256
4124.1026,4133.3333,4158.9744,4035.3846,4131.2821,4065.641,4149.7436,4134.8718,4121.5385,4136.4103,4102.5641,4136.9231
4121.5385,4146.6667,4148.2051,4054.8718,4152.8205,4062.5641,4145.641,4134.359,4117.9487,4134.359,4097.4359,4137.9487
4115.8974,4142.0513,4145.641,4059.4872,4152.3077,4072.3077,4145.1282,4137.9487,4115.8974,4131.2821,4096.4103,4132.8205
4115.3846,4128.7179,4150.2564,4049.2308,4129.2308,4071.2821,4141.5385,4128.2051,4114.8718,4126.6667,4092.3077,4129.7436
4110.2564,4132.3077,4142.0513,4036.4103,4125.1282,4066.1538,4135.8974,4116.4103,4113.8462,4123.0769,4077.9487,4126.6667
4106.1538,4137.4359,4134.359,4042.5641,4136.9231,4074.8718,4142.0513,4122.0513,4115.8974,4125.1282,4082.0513,4128.2051
4098.9744,4125.1282,4130.2564,4047.1795,4134.359,4069.7436,4132.3077,4117.9487,4110.2564,4115.8974,4078.4615,4114.359
4103.0769,4126.6667,4136.9231,4042.5641,4133.3333,4070.2564,4138.4615,4121.5385,4109.7436,4117.9487,4071.2821,4115.8974
4108.7179,4135.3846,4147.1795,4033.8462,4128.7179,4068.2051,4147.6923,4131.7949,4117.4359,4128.7179,4080.5128,4128.7179
4112.8205,4133.3333,4150.7692,4035.3846,4127.1795,4057.9487,4138.9744,4133.8462,4118.4615,4134.8718,4093.8462,4131.2821
4125.641,4130.2564,4156.4103,4053.3333,4137.4359,4066.1538,4145.641,4134.359,4115.8974,4142.5641,4108.2051,4144.6154
4109.7436,4122.5641,4147.1795,4052.8205,4128.7179,4066.1538,4143.0769,4124.6154,4115.3846,4131.7949,4094.359,4134.8718
4095.8974,4126.6667,4144.1026,4045.1282,4130.2564,4072.3077,4144.1026,4125.1282,4116.9231,4123.0769,4081.5385,4117.4359
4107.6923,4138.9744,4148.2051,4053.3333,4138.9744,4080,4153.8462,4128.2051,4116.9231,4127.1795,4083.5897,4117.9487
4109.2308,4134.8718,4139.4872,4058.4615,4125.641,4062.0513,4142.0513,4117.9487,4114.359,4125.1282,4070.7692,4114.8718
4104.1026,4124.1026,4142.5641,4063.0769,4117.4359,4049.7436,4134.8718,4120.5128,4114.8718,4125.1282,4065.1282,4112.8205
4101.5385,4128.7179,4141.0256,4054.359,4117.4359,4050.7692,4136.4103,4129.7436,4110.7692,4121.5385,4062.5641,4105.641
4108.2051,4140,4136.4103,4057.4359,4124.1026,4057.4359,4140,4135.8974,4111.7949,4126.1538,4072.3077,4111.2821
4107.1795,4128.7179,4137.4359,4062.5641,4125.1282,4061.5385,4141.0256,4129.7436,4117.4359,4129.7436,4084.1026,4118.9744
4097.9487,4114.359,4141.0256,4045.641,4117.4359,4058.9744,4140,4120.5128,4111.7949,4123.5897,4070.7692,4107.6923
4104.1026,4125.641,4144.1026,4054.359,4120.5128,4066.6667,4149.2308,4130.7692,4107.6923,4127.6923,4064.6154,4104.1026
4099.4872,4136.9231,4134.8718,4059.4872,4125.641,4067.6923,4142.0513,4127.1795,4113.8462,4126.6667,4066.6667,4096.4103
4106.6667,4129.7436,4148.7179,4055.8974,4127.1795,4066.1538,4134.359,4121.5385,4121.5385,4131.2821,4078.9744,4103.5897
4126.1538,4139.4872,4162.5641,4071.7949,4125.1282,4065.1282,4137.4359,4130.7692,4116.9231,4140.5128,4087.1795,4125.641
4113.8462,4153.8462,4141.0256,4080,4130.7692,4056.4103,4136.9231,4130.7692,4107.6923,4129.7436,4078.4615,4116.9231
4109.2308,4125.641,4145.641,4081.5385,4130.7692,4061.5385,4151.2821,4130.7692,4112.8205,4127.1795,4086.6667,4111.2821
4121.5385,4109.7436,4158.9744,4071.2821,4107.6923,4061.0256,4148.7179,4127.1795,4116.9231,4129.7436,4083.5897,4112.8205
4115.8974,4150.7692,4134.359,4066.6667,4114.8718,4060.5128,4137.4359,4126.1538,4116.9231,4126.1538,4080,4110.2564
4101.0256,4144.1026,4118.9744,4071.2821,4133.8462,4065.1282,4147.1795,4132.3077,4122.5641,4126.6667,4095.8974,4110.7692
4105.641,4108.2051,4134.8718,4068.7179,4119.4872,4059.4872,4146.6667,4129.2308,4122.5641,4127.6923,4086.1538,4110.7692
4124.1026,4141.5385,4144.6154,4067.6923,4127.1795,4067.6923,4147.1795,4128.2051,4120,4133.3333,4075.3846,4119.4872
4110.2564,4146.6667,4133.3333,4071.2821,4145.1282,4065.641,4145.1282,4125.1282,4117.9487,4129.7436,4078.9744,4113.8462
4095.8974,4109.2308,4136.4103,4082.0513,4134.8718,4053.8462,4139.4872,4123.0769,4114.8718,4122.0513,4076.4103,4097.9487
4103.0769,4122.5641,4137.9487,4082.0513,4134.8718,4055.8974,4140.5128,4121.0256,4113.3333,4116.4103,4063.5897,4090.2564
4092.8205,4144.1026,4118.4615,4068.7179,4146.6667,4049.2308,4129.2308,4111.7949,4110.7692,4108.7179,4047.1795,4082.5641
4099.4872,4134.359,4131.7949,4081.5385,4146.6667,4054.359,4133.3333,4124.6154,4117.4359,4121.5385,4064.1026,4098.4615
4112.3077,4131.2821,4146.1538,4090.2564,4143.5897,4064.1026,4142.0513,4133.3333,4120.5128,4124.1026,4079.4872,4108.7179
4107.1795,4136.9231,4136.9231,4085.1282,4155.3846,4061.0256,4135.3846,4126.1538,4117.9487,4117.4359,4080,4109.2308
4109.7436,4136.9231,4137.4359,4086.6667,4165.1282,4056.9231,4133.3333,4129.2308,4121.5385,4126.6667,4087.1795,4121.0256
4104.6154,4133.8462,4132.3077,4069.2308,4159.4872,4053.3333,4127.6923,4127.1795,4118.4615,4121.0256,4075.3846,4103.0769
4105.641,4119.4872,4139.4872,4063.5897,4151.7949,4062.5641,4132.3077,4124.6154,4115.3846,4117.9487,4081.0256,4096.4103
4118.9744,4122.5641,4154.359,4075.3846,4133.8462,4070.2564,4135.3846,4123.5897,4121.0256,4128.2051,4096.9231,4120
4119.4872,4150.7692,4143.0769,4070.7692,4127.6923,4065.1282,4127.1795,4120.5128,4121.5385,4126.1538,4087.1795,4117.9487
4110.2564,4144.6154,4131.2821,4074.359,4147.1795,4066.6667,4131.7949,4126.1538,4117.9487,4121.5385,4085.641,4102.5641
4097.9487,4120.5128,4130.2564,4078.4615,4148.7179,4065.641,4134.8718,4126.1538,4115.8974,4119.4872,4087.1795,4095.8974
4108.2051,4136.9231,4139.4872,4083.5897,4137.9487,4071.7949,4141.0256,4127.6923,4115.8974,4125.641,4090.7692,4109.2308
4119.4872,4151.2821,4139.4872,4090.2564,4135.8974,4073.3333,4138.9744,4127.1795,4116.9231,4127.6923,4098.4615,4122.0513
4110.2564,4127.6923,4133.3333,4088.2051,4135.3846,4065.641,4127.1795,4122.5641,4116.4103,4120.5128,4090.2564,4107.6923
4109.2308,4116.9231,4141.5385,4085.641,4134.359,4075.3846,4137.9487,4130.7692,4119.4872,4124.1026,4085.641,4098.4615
4104.6154,4129.7436,4142.0513,4072.3077,4124.6154,4074.359,4140.5128,4129.2308,4117.9487,4126.6667,4092.8205,4098.4615
4104.6154,4135.8974,4144.6154,4078.9744,4131.2821,4070.7692,4135.8974,4127.6923,4116.9231,4130.2564,4109.2308,4107.1795
4111.2821,4131.7949,4150.7692,4093.3333,4138.9744,4074.359,4135.8974,4130.2564,4117.4359,4131.7949,4111.7949,4109.7436
4112.3077,4132.3077,4147.1795,4078.9744,4124.6154,4071.7949,4136.9231,4125.1282,4115.3846,4128.7179,4102.0513,4104.6154
4120.5128,4131.2821,4158.4615,4087.1795,4123.0769,4081.5385,4149.2308,4129.7436,4120,4137.9487,4113.3333,4116.4103
4111.7949,4121.5385,4154.8718,4105.1282,4124.1026,4074.8718,4134.8718,4123.5897,4118.9744,4128.7179,4106.6667,4106.1538
4100.5128,4135.8974,4130.2564,4093.3333,4130.7692,4065.1282,4123.0769,4116.4103,4113.3333,4114.359,4092.3077,4090.7692
4104.1026,4149.7436,4125.1282,4075.8974,4150.7692,4074.359,4138.9744,4122.0513,4116.4103,4123.0769,4103.5897,4102.0513
4098.9744,4126.6667,4135.3846,4076.4103,4146.1538,4075.8974,4136.4103,4122.5641,4118.4615,4128.2051,4108.7179,4100
4095.3846,4115.3846,4136.9231,4080.5128,4139.4872,4075.8974,4131.2821,4123.5897,4116.9231,4124.6154,4103.0769,4095.3846
4091.7949,4130.7692,4124.1026,4065.641,4154.8718,4070.2564,4130.2564,4119.4872,4116.9231,4118.9744,4093.8462,4095.3846
4098.9744,4141.0256,4131.2821,4063.0769,4160.5128,4063.0769,4128.7179,4121.0256,4123.0769,4125.1282,4102.5641,4101.0256
4108.7179,4133.8462,4144.6154,4074.359,4141.0256,4061.5385,4133.8462,4131.2821,4122.5641,4130.2564,4118.9744,4108.7179
4099.4872,4127.1795,4137.4359,4068.2051,4131.2821,4061.5385,4137.4359,4130.7692,4114.8718,4121.0256,4105.1282,4096.9231
4106.6667,4134.359,4138.4615,4078.4615,4144.6154,4067.6923,4143.0769,4129.2308,4119.4872,4126.1538,4098.4615,4095.8974
4109.7436,4134.359,4132.3077,4089.7436,4137.4359,4056.9231,4126.1538,4116.4103,4122.5641,4125.1282,4104.1026,4100.5128
4103.0769,4135.3846,4127.6923,4085.641,4124.1026,4051.7949,4112.8205,4109.7436,4114.359,4116.4103,4107.6923,4097.9487
4114.359,4146.6667,4144.1026,4091.7949,4131.7949,4070.7692,4130.2564,4126.1538,4114.8718,4127.1795,4116.4103,4105.641
4120.5128,4140.5128,4148.2051,4089.7436,4143.5897,4072.8205,4137.4359,4127.6923,4123.0769,4132.8205,4116.9231,4112.3077
4122.0513,4128.2051,4146.6667,4093.3333,4157.4359,4074.8718,4138.4615,4125.1282,4126.6667,4130.7692,4126.1538,4121.5385
4118.9744,4133.8462,4147.6923,4102.0513,4149.2308,4075.3846,4135.3846,4130.2564,4118.4615,4126.1538,4123.5897,4115.8974
4117.4359,4146.6667,4154.359,4097.9487,4134.359,4069.7436,4136.4103,4139.4872,4115.8974,4127.1795,4110.7692,4111.2821
4126.1538,4141.5385,4165.641,4094.8718,4146.6667,4080,4155.8974,4144.6154,4123.5897,4134.359,4127.6923,4127.1795
4121.0256,4128.7179,4157.9487,4090.7692,4150.7692,4075.3846,4146.6667,4132.8205,4122.0513,4129.2308,4133.3333,4127.1795
4116.4103,4140.5128,4150.2564,4088.7179,4145.641,4064.1026,4133.3333,4130.7692,4117.4359,4129.2308,4125.641,4129.7436
4114.8718,4136.9231,4151.2821,4083.5897,4139.4872,4062.5641,4138.9744,4132.3077,4120,4131.2821,4112.8205,4131.7949
4108.7179,4119.4872,4151.7949,4086.6667,4139.4872,4064.1026,4141.0256,4128.7179,4123.0769,4126.1538,4101.0256,4118.4615
4114.8718,4136.4103,4152.3077,4094.359,4150.2564,4071.7949,4145.641,4133.8462,4123.5897,4128.7179,4123.5897,4128.2051
4118.9744,4154.8718,4145.641,4077.4359,4150.7692,4068.7179,4139.4872,4131.7949,4121.5385,4129.7436,4137.9487,4139.4872
4122.5641,4140.5128,4156.4103,4077.4359,4148.7179,4069.7436,4137.4359,4132.8205,4122.5641,4134.359,4129.7436,4138.9744
4123.0769,4122.0513,4167.6923,4089.7436,4145.641,4069.7436,4138.4615,4133.8462,4121.0256,4131.7949,4121.5385,4135.3846
4116.9231,4133.3333,4151.7949,4076.4103,4145.641,4061.5385,4131.7949,4131.2821,4117.4359,4123.5897,4117.4359,4129.7436
4120.5128,4142.0513,4146.1538,4074.359,4149.7436,4068.7179,4141.0256,4139.4872,4121.5385,4130.7692,4126.6667,4134.8718
4118.4615,4130.2564,4149.2308,4085.1282,4142.5641,4073.3333,4142.5641,4136.9231,4120.5128,4126.1538,4125.1282,4129.7436
4123.0769,4134.359,4152.8205,4093.3333,4147.1795,4077.4359,4142.5641,4131.7949,4117.9487,4125.641,4123.5897,4127.6923
4128.2051,4136.9231,4153.3333,4094.359,4148.7179,4081.5385,4148.2051,4136.9231,4123.5897,4137.4359,4131.7949,4134.359
4118.9744,4127.1795,4146.1538,4087.6923,4135.8974,4078.9744,4142.5641,4137.9487,4125.1282,4136.4103,4129.7436,4127.1795
4125.641,4130.7692,4153.3333,4093.8462,4138.4615,4082.0513,4143.0769,4137.9487,4122.5641,4138.4615,4133.3333,4134.8718
4129.7436,4142.0513,4152.8205,4095.3846,4144.1026,4081.0256,4140,4130.7692,4120,4139.4872,4128.7179,4137.9487
4123.5897,4140.5128,4144.6154,4090.2564,4147.6923,4086.1538,4140.5128,4130.2564,4120.5128,4135.3846,4119.4872,4127.6923
4118.4615,4121.0256,4143.0769,4078.4615,4146.1538,4088.7179,4144.1026,4138.9744,4123.0769,4131.7949,4114.8718,4122.5641
4112.3077,4119.4872,4138.9744,4068.7179,4135.3846,4070.2564,4131.2821,4134.359,4121.5385,4127.1795,4108.7179,4115.8974
4119.4872,4140,4142.5641,4089.7436,4142.0513,4069.7436,4130.2564,4130.2564,4122.5641,4131.2821,4110.2564,4122.5641
4118.9744,4135.3846,4143.0769,4098.9744,4143.5897,4077.9487,4132.8205,4126.6667,4122.0513,4130.7692,4100,4120.5128
4120.5128,4121.5385,4144.6154,4087.6923,4134.359,4087.1795,4136.4103,4131.7949,4120,4134.8718,4101.5385,4116.9231
4129.2308,4131.2821,4146.1538,4090.2564,4131.7949,4101.0256,4143.5897,4136.9231,4120,4141.5385,4113.3333,4125.1282
4122.5641,4141.5385,4141.5385,4097.9487,4133.3333,4103.5897,4140.5128,4127.6923,4119.4872,4134.359,4103.0769,4120.5128
4132.3077,4138.4615,4154.8718,4119.4872,4146.6667,4111.7949,4147.1795,4135.8974,4126.6667,4143.5897,4116.4103,4133.8462
4125.1282,4126.1538,4144.6154,4114.8718,4140,4095.3846,4127.6923,4127.1795,4125.1282,4138.9744,4114.8718,4128.7179
4087.6923,4111.2821,4105.641,4082.0513,4111.7949,4056.9231,4082.0513,4093.3333,4115.3846,4108.7179,4069.7436,4088.2051
4079.4872,4105.1282,4099.4872,4077.9487,4097.4359,4045.1282,4067.1795,4087.6923,4113.8462,4104.6154,4057.9487,4080
4090.7692,4115.8974,4112.8205,4091.7949,4098.4615,4048.2051,4072.3077,4096.9231,4111.2821,4113.3333,4070.2564,4089.2308
4095.8974,4130.7692,4114.8718,4113.8462,4109.7436,4054.8718,4083.5897,4102.5641,4110.7692,4115.3846,4072.8205,4094.359
4093.8462,4135.3846,4107.6923,4125.1282,4116.4103,4055.8974,4080,4099.4872,4114.8718,4116.9231,4074.8718,4101.0256
4098.4615,4132.8205,4111.7949,4121.5385,4117.9487,4059.4872,4074.359,4098.9744,4116.9231,4122.5641,4081.5385,4106.1538
4102.5641,4123.5897,4122.0513,4128.7179,4115.8974,4071.7949,4089.2308,4104.1026,4113.3333,4125.1282,4080.5128,4105.641
4092.8205,4124.1026,4115.3846,4129.7436,4106.1538,4068.7179,4090.7692,4100,4111.7949,4116.9231,4062.5641,4094.359
4094.359,4132.3077,4113.8462,4118.4615,4104.1026,4065.641,4091.2821,4103.5897,4114.8718,4118.9744,4058.4615,4093.8462
4094.359,4125.1282,4118.9744,4109.7436,4097.4359,4064.6154,4095.8974,4110.2564,4112.8205,4121.0256,4062.0513,4097.9487
4089.7436,4120.5128,4117.4359,4119.4872,4091.7949,4061.0256,4092.8205,4105.1282,4112.3077,4121.0256,4060.5128,4096.4103
4095.8974,4127.6923,4121.0256,4137.9487,4101.5385,4070.7692,4097.4359,4104.6154,4115.3846,4128.7179,4063.5897,4097.9487
4085.1282,4126.1538,4118.4615,4126.1538,4103.0769,4073.8462,4097.4359,4107.6923,4110.2564,4125.641,4054.8718,4086.6667
4076.9231,4127.6923,4116.4103,4108.7179,4098.4615,4075.8974,4095.8974,4113.3333,4110.2564,4128.2051,4054.359,4090.2564
4075.3846,4126.6667,4107.6923,4097.9487,4089.7436,4076.4103,4094.8718,4107.6923,4113.8462,4130.2564,4050.2564,4092.8205
4055.8974,4113.8462,4089.7436,4080.5128,4083.5897,4069.2308,4091.7949,4095.8974,4107.6923,4117.9487,4022.5641,4066.1538
4043.5897,4114.8718,4090.7692,4082.0513,4091.7949,4077.4359,4096.9231,4101.0256,4103.5897,4115.8974,4018.4615,4058.9744
4037.9487,4114.359,4091.7949,4080,4089.7436,4077.9487,4088.2051,4103.0769,4106.1538,4116.4103,4023.5897,4061.0256
4044.6154,4115.8974,4094.359,4077.9487,4091.7949,4071.2821,4086.6667,4107.6923,4113.3333,4128.7179,4033.3333,4065.1282
4052.8205,4132.8205,4098.9744,4091.2821,4105.641,4072.8205,4095.8974,4110.7692,4116.4103,4139.4872,4045.641,4070.2564
4040,4134.8718,4091.7949,4101.0256,4102.5641,4075.3846,4090.7692,4103.5897,4110.7692,4129.2308,4036.4103,4053.3333
4038.9744,4125.641,4098.9744,4106.1538,4095.3846,4082.5641,4094.359,4107.1795,4111.7949,4129.7436,4033.8462,4049.2308
4048.2051,4127.1795,4104.1026,4101.0256,4100.5128,4080.5128,4096.9231,4108.7179,4109.2308,4131.2821,4034.359,4053.3333
4050.2564,4135.8974,4102.0513,4106.6667,4111.7949,4080.5128,4103.5897,4111.7949,4104.1026,4125.1282,4027.6923,4046.6667
4043.5897,4126.6667,4101.5385,4112.3077,4114.359,4082.5641,4114.359,4115.8974,4107.6923,4123.5897,4023.5897,4035.3846
4033.3333,4121.0256,4093.8462,4094.8718,4115.8974,4074.8718,4104.1026,4104.1026,4109.7436,4123.0769,4020,4023.0769
4037.4359,4130.2564,4095.8974,4091.7949,4133.8462,4084.6154,4105.641,4102.0513,4106.6667,4126.6667,4023.0769,4025.641
4031.2821,4122.5641,4095.8974,4094.359,4146.1538,4093.8462,4116.4103,4108.7179,4105.1282,4124.1026,4011.7949,4018.9744
4021.5385,4116.4103,4091.7949,4087.1795,4175.8974,4090.7692,4114.8718,4110.2564,4107.1795,4121.0256,3998.9744,4006.1538
4024.1026,4128.7179,4093.3333,4086.6667,4242.0513,4086.6667,4104.6154,4105.1282,4106.6667,4119.4872,4003.5897,4005.641
4023.0769,4136.4103,4097.4359,4088.7179,4310.7692,4081.5385,4097.9487,4097.9487,4104.6154,4120.5128,4009.7436,4009.2308
4036.4103,4135.3846,4112.3077,4099.4872,4402.5641,4089.2308,4115.8974,4111.7949,4108.7179,4135.8974,4028.7179,4028.2051
4045.1282,4135.8974,4115.3846,4102.0513,4516.4103,4088.7179,4118.4615,4115.3846,4111.2821,4138.9744,4031.2821,4034.359
4038.4615,4137.4359,4112.3077,4094.8718,4578.4615,4085.1282,4105.1282,4108.2051,4111.2821,4134.359,4022.5641,4026.6667
4037.4359,4130.7692,4114.8718,4088.7179,4562.5641,4096.9231,4111.2821,4112.3077,4112.3077,4141.5385,4033.3333,4027.6923
4037.4359,4128.7179,4109.7436,4078.9744,4561.0256,4101.0256,4115.8974,4114.8718,4108.7179,4138.9744,4027.1795,4017.4359
4049.7436,4136.9231,4121.0256,4088.2051,4660,4112.8205,4126.6667,4121.5385,4111.2821,4140.5128,4027.1795,4022.5641
4053.8462,4130.7692,4130.2564,4093.3333,4774.359,4120,4130.7692,4119.4872,4114.359,4144.6154,4042.0513,4031.7949
4045.1282,4125.641,4121.5385,4084.6154,4865.1282,4113.8462,4127.6923,4117.4359,4108.7179,4141.0256,4038.9744,4020.5128
4051.7949,4135.8974,4125.1282,4094.8718,5041.0256,4115.3846,4140.5128,4127.1795,4108.7179,4143.0769,4036.9231,4023.5897
4060,4136.4103,4135.3846,4104.1026,5268.7179,4115.8974,4138.9744,4124.1026,4118.4615,4147.1795,4045.1282,4038.9744
4066.1538,4130.7692,4141.5385,4103.5897,5320,4121.5385,4134.8718,4127.1795,4124.1026,4153.8462,4058.9744,4050.2564
4061.5385,4130.2564,4138.4615,4094.359,5094.8718,4120.5128,4136.9231,4131.7949,4115.8974,4150.7692,4058.4615,4042.5641
4050.7692,4132.8205,4129.7436,4088.7179,4830.2564,4121.0256,4138.4615,4125.641,4111.2821,4146.6667,4047.6923,4029.7436
4054.8718,4131.7949,4129.2308,4099.4872,4746.6667,4133.3333,4144.1026,4124.6154,4118.9744,4155.3846,4051.2821,4036.9231
4055.3846,4128.7179,4125.641,4097.9487,4769.7436,4127.1795,4136.4103,4123.0769,4120,4155.3846,4050.7692,4036.4103
4061.5385,4137.4359,4135.3846,4100.5128,4757.4359,4130.2564,4150.7692,4130.7692,4116.4103,4158.4615,4061.5385,4040
4073.3333,4144.6154,4151.7949,4115.8974,4697.9487,4149.7436,4178.4615,4146.6667,4122.5641,4166.1538,4082.5641,4056.4103
4086.1538,4147.6923,4165.641,4126.1538,4654.8718,4162.0513,4188.2051,4161.5385,4131.2821,4172.8205,4100,4072.8205
4106.6667,4148.7179,4184.1026,4147.1795,4619.4872,4183.0769,4208.7179,4173.8462,4137.9487,4184.6154,4121.0256,4098.4615
4103.0769,4142.0513,4177.9487,4157.4359,4567.6923,4192.8205,4217.9487,4167.6923,4136.4103,4182.5641,4113.3333,4098.9744
4094.8718,4140,4170.7692,4154.359,4534.359,4190.2564,4211.2821,4164.6154,4136.4103,4180.5128,4106.6667,4093.3333
4098.9744,4142.5641,4179.4872,4151.2821,4512.8205,4187.6923,4209.7436,4167.6923,4140.5128,4183.5897,4116.9231,4104.1026
4098.4615,4142.5641,4178.9744,4144.1026,4529.2308,4181.0256,4209.2308,4164.6154,4137.4359,4180.5128,4114.359,4109.2308
4107.1795,4142.5641,4185.1282,4147.1795,4598.9744,4179.4872,4216.9231,4169.7436,4136.9231,4185.1282,4121.0256,4121.0256
4107.6923,4138.4615,4185.641,4143.0769,4646.6667,4170.7692,4213.8462,4167.6923,4136.9231,4182.0513,4121.0256,4119.4872
4107.6923,4138.9744,4184.1026,4142.0513,4717.9487,4169.7436,4210.7692,4169.2308,4136.4103,4182.0513,4120,4116.4103
4113.3333,4140,4192.8205,4152.3077,4832.8205,4180,4218.4615,4177.9487,4140.5128,4189.7436,4127.6923,4130.2564
4111.2821,4138.9744,4194.359,4150.2564,4853.3333,4181.0256,4218.9744,4174.359,4142.5641,4187.1795,4119.4872,4133.8462
4118.4615,4145.641,4192.8205,4151.2821,4729.7436,4188.2051,4223.5897,4174.8718,4142.5641,4193.3333,4126.1538,4140
4121.0256,4147.1795,4187.6923,4153.8462,4533.8462,4184.6154,4216.4103,4172.8205,4142.5641,4194.8718,4140.5128,4145.1282
4117.4359,4148.2051,4187.6923,4160,4363.0769,4177.4359,4210.2564,4173.8462,4144.6154,4186.6667,4142.5641,4146.6667
4117.4359,4148.2051,4189.2308,4165.1282,4262.0513,4184.1026,4215.3846,4175.8974,4144.1026,4186.1538,4134.359,4148.7179
4111.7949,4139.4872,4181.5385,4155.3846,4160,4178.9744,4207.1795,4163.5897,4140.5128,4183.0769,4117.4359,4137.9487
4116.9231,4140.5128,4189.2308,4155.3846,4072.8205,4174.359,4207.6923,4161.5385,4141.5385,4180.5128,4123.0769,4141.0256
4117.4359,4144.1026,4194.359,4149.7436,4121.5385,4171.2821,4206.6667,4167.6923,4139.4872,4177.9487,4125.641,4145.1282
4111.2821,4140,4186.1538,4138.4615,4253.8462,4166.1538,4193.8462,4168.7179,4134.359,4176.9231,4111.2821,4135.3846
4109.2308,4134.8718,4176.4103,4138.4615,4304.1026,4159.4872,4186.6667,4164.1026,4136.4103,4177.9487,4111.2821,4132.8205
4097.9487,4134.8718,4160.5128,4132.3077,4274.8718,4144.6154,4174.359,4148.2051,4138.4615,4171.2821,4107.6923,4124.1026
4101.0256,4140.5128,4160,4132.8205,4263.0769,4151.2821,4178.4615,4145.1282,4140,4174.359,4104.6154,4123.0769
4111.7949,4136.4103,4168.7179,4135.8974,4237.4359,4157.9487,4190.7692,4156.9231,4139.4872,4177.4359,4107.1795,4130.2564
4114.8718,4132.3077,4174.8718,4131.7949,4170.7692,4146.1538,4190.2564,4166.1538,4138.4615,4180,4111.7949,4134.8718
4118.4615,4136.4103,4182.0513,4130.2564,4098.4615,4145.1282,4191.2821,4165.641,4141.0256,4185.641,4118.4615,4139.4872
4109.2308,4134.359,4166.1538,4116.9231,4019.4872,4153.3333,4194.8718,4158.9744,4137.4359,4175.3846,4106.1538,4126.1538
4101.0256,4127.6923,4154.359,4113.3333,3955.8974,4167.6923,4208.2051,4168.2051,4139.4872,4172.3077,4096.4103,4120
4096.4103,4123.0769,4157.9487,4116.9231,3899.4872,4166.1538,4206.1538,4169.2308,4141.5385,4173.3333,4097.9487,4117.9487
4098.4615,4128.7179,4163.5897,4114.8718,3841.5385,4157.4359,4193.8462,4155.3846,4137.4359,4175.3846,4104.6154,4117.4359
4113.8462,4138.4615,4172.3077,4126.6667,3792.8205,4163.0769,4196.4103,4157.4359,4140.5128,4187.6923,4115.8974,4135.8974
4110.2564,4137.4359,4168.2051,4134.359,3730.7692,4156.4103,4186.6667,4156.9231,4140,4182.0513,4103.0769,4130.2564
4103.5897,4135.3846,4166.6667,4141.0256,3663.0769,4152.3077,4187.1795,4158.4615,4137.4359,4173.8462,4095.3846,4118.4615
4104.1026,4132.3077,4166.1538,4141.5385,3589.7436,4155.3846,4195.8974,4158.4615,4138.9744,4173.8462,4098.4615,4118.4615
4092.3077,4127.1795,4148.2051,4126.6667,3496.4103,4147.6923,4177.9487,4142.5641,4136.9231,4163.5897,4081.0256,4103.0769
4084.6154,4122.0513,4138.9744,4118.9744,3396.9231,4144.1026,4164.1026,4138.4615,4130.2564,4156.9231,4071.2821,4094.359
4080,4118.9744,4138.9744,4108.2051,3304.1026,4141.0256,4163.0769,4143.0769,4125.641,4157.9487,4068.7179,4087.1795
4087.1795,4125.641,4144.6154,4108.7179,3229.2308,4145.641,4174.8718,4145.641,4130.2564,4167.1795,4077.4359,4088.2051
4094.359,4126.1538,4146.6667,4120,3154.359,4147.1795,4183.5897,4145.641,4134.8718,4177.9487,4095.3846,4098.4615
4083.0769,4121.5385,4141.5385,4108.7179,3081.5385,4132.8205,4173.8462,4144.1026,4132.3077,4178.4615,4093.3333,4095.8974
4083.5897,4127.1795,4148.7179,4102.5641,3045.641,4131.7949,4172.8205,4149.2308,4133.8462,4182.0513,4092.3077,4097.9487
4084.1026,4131.2821,4147.1795,4105.1282,3028.7179,4131.7949,4169.7436,4145.641,4132.8205,4177.4359,4088.7179,4094.359
4077.4359,4131.2821,4132.8205,4099.4872,3024.1026,4133.8462,4164.6154,4143.0769,4130.2564,4168.7179,4080.5128,4083.5897
4077.4359,4126.6667,4128.7179,4094.359,3032.3077,4137.4359,4163.0769,4144.1026,4131.2821,4166.6667,4080,4080
4083.0769,4125.1282,4138.9744,4097.9487,3036.9231,4129.2308,4152.8205,4140,4131.7949,4169.7436,4089.7436,4084.6154
4091.7949,4131.2821,4153.8462,4106.6667,3045.1282,4128.2051,4154.8718,4144.1026,4137.9487,4177.4359,4109.2308,4100
4085.1282,4126.6667,4142.0513,4094.8718,3050.7692,4123.0769,4154.8718,4142.0513,4137.9487,4166.1538,4100,4091.2821
4084.6154,4120.5128,4131.2821,4089.2308,3071.7949,4122.5641,4155.8974,4137.9487,4132.3077,4161.0256,4096.4103,4084.1026
4096.4103,4122.5641,4145.1282,4105.641,3108.7179,4133.3333,4166.1538,4140.5128,4135.3846,4173.8462,4113.3333,4100
4088.2051,4125.1282,4148.2051,4110.2564,3133.8462,4128.7179,4156.4103,4134.359,4137.9487,4167.1795,4097.4359,4087.6923
4080.5128,4129.7436,4144.1026,4119.4872,3160,4124.1026,4149.7436,4133.3333,4132.3077,4158.9744,4079.4872,4069.7436
4075.8974,4128.7179,4133.3333,4126.1538,3183.5897,4118.9744,4148.7179,4132.8205,4123.5897,4156.4103,4082.5641,4067.1795
4070.2564,4126.1538,4121.0256,4118.4615,3195.3846,4115.3846,4144.6154,4131.7949,4126.1538,4154.359,4081.5385,4066.6667
4075.3846,4125.641,4128.2051,4118.9744,3210.2564,4122.5641,4147.1795,4131.7949,4129.7436,4158.4615,4080.5128,4074.8718
4083.5897,4129.2308,4138.4615,4122.0513,3230.7692,4116.4103,4137.9487,4122.5641,4125.1282,4158.4615,4081.5385,4082.5641
4093.8462,4134.359,4141.5385,4127.1795,3242.0513,4113.3333,4136.9231,4129.7436,4126.6667,4161.5385,4090.7692,4091.7949
4087.1795,4128.2051,4131.7949,4121.0256,3227.6923,4115.8974,4145.641,4140.5128,4128.7179,4159.4872,4097.9487,4090.2564
4076.4103,4122.0513,4125.1282,4112.3077,3221.5385,4116.4103,4149.2308,4137.9487,4128.2051,4156.9231,4101.0256,4083.5897
4088.2051,4129.7436,4131.7949,4125.1282,3244.6154,4119.4872,4152.3077,4136.4103,4133.8462,4160.5128,4108.2051,4091.2821
4094.8718,4135.8974,4131.2821,4129.2308,3261.5385,4114.359,4144.1026,4128.7179,4135.8974,4157.4359,4103.5897,4092.8205
4100.5128,4137.9487,4135.8974,4128.2051,3273.8462,4115.3846,4145.1282,4128.7179,4131.2821,4165.1282,4108.7179,4100.5128
4103.0769,4134.359,4136.9231,4125.641,3285.1282,4112.3077,4144.6154,4134.359,4131.7949,4169.7436,4115.8974,4104.6154
4091.7949,4126.6667,4126.1538,4115.8974,3303.5897,4106.6667,4140,4129.2308,4135.8974,4154.359,4104.1026,4088.7179
4088.7179,4125.641,4127.1795,4114.8718,3336.4103,4116.4103,4151.7949,4131.2821,4131.2821,4146.1538,4100,4082.0513
4088.7179,4129.7436,4125.641,4110.7692,3341.0256,4114.359,4149.7436,4135.8974,4123.5897,4147.6923,4101.5385,4077.4359
4093.8462,4132.3077,4129.2308,4110.7692,3323.5897,4115.3846,4145.641,4142.5641,4132.8205,4154.8718,4117.4359,4083.0769
4094.359,4127.1795,4132.3077,4107.6923,3323.5897,4129.2308,4157.4359,4147.1795,4138.9744,4154.359,4117.9487,4087.6923
4081.5385,4123.0769,4123.5897,4102.0513,3346.6667,4129.7436,4155.8974,4143.0769,4129.2308,4145.1282,4095.8974,4072.3077
4085.641,4129.2308,4122.5641,4112.8205,3371.2821,4124.6154,4151.2821,4139.4872,4131.2821,4148.2051,4109.2308,4071.7949
4088.2051,4131.2821,4118.9744,4114.8718,3378.4615,4118.4615,4147.1795,4132.3077,4135.8974,4146.6667,4125.641,4071.2821
4085.641,4132.8205,4118.9744,4115.3846,3397.9487,4121.5385,4152.8205,4140,4132.8205,4146.6667,4120.5128,4069.7436
4085.641,4130.2564,4120.5128,4117.4359,3426.6667,4125.641,4158.9744,4149.7436,4128.7179,4150.2564,4116.4103,4074.359
4080,4123.0769,4115.3846,4106.1538,3442.0513,4122.5641,4154.8718,4141.5385,4127.6923,4143.5897,4112.3077,4068.2051
4084.1026,4124.1026,4120.5128,4105.1282,3452.8205,4122.5641,4154.8718,4138.4615,4132.8205,4148.7179,4116.4103,4073.3333
4088.7179,4130.2564,4121.5385,4109.7436,3459.4872,4110.7692,4142.0513,4134.359,4133.3333,4152.3077,4119.4872,4077.9487
4095.3846,4134.8718,4122.5641,4118.4615,3485.1282,4112.8205,4141.5385,4135.8974,4131.2821,4150.2564,4123.0769,4081.5385
4097.9487,4129.7436,4124.1026,4122.5641,3512.8205,4130.2564,4155.8974,4145.1282,4133.8462,4151.2821,4124.6154,4081.5385
4089.2308,4124.6154,4113.8462,4107.6923,3511.2821,4123.0769,4147.6923,4146.6667,4136.9231,4149.2308,4121.5385,4068.7179
4097.9487,4129.7436,4117.4359,4105.1282,3512.3077,4115.8974,4149.7436,4147.1795,4137.9487,4154.359,4138.9744,4077.9487
4101.5385,4131.2821,4121.0256,4111.2821,3525.1282,4115.3846,4151.7949,4140.5128,4135.3846,4152.8205,4139.4872,4087.1795
4097.9487,4133.8462,4120.5128,4122.0513,3536.9231,4117.4359,4145.1282,4140,4134.359,4149.2308,4125.641,4084.6154
4098.9744,4130.7692,4126.6667,4127.1795,3536.4103,4122.0513,4154.359,4149.7436,4134.8718,4150.2564,4131.2821,4087.6923
4090.2564,4121.0256,4124.6154,4110.7692,3529.2308,4107.1795,4153.3333,4145.1282,4131.2821,4147.1795,4131.7949,4087.6923
4097.4359,4128.2051,4132.3077,4108.7179,3543.5897,4100,4146.1538,4143.5897,4135.3846,4157.9487,4141.5385,4104.6154
4104.1026,4133.3333,4137.9487,4112.3077,3562.0513,4106.1538,4142.5641,4145.641,4137.4359,4157.9487,4144.6154,4113.8462
4101.0256,4129.2308,4135.3846,4106.1538,3572.8205,4108.7179,4151.2821,4152.3077,4131.2821,4151.7949,4135.8974,4110.7692
4106.6667,4129.7436,4140.5128,4113.3333,3586.1538,4111.7949,4160.5128,4158.4615,4131.2821,4158.4615,4142.0513,4120.5128
4104.1026,4133.3333,4138.9744,4114.359,3596.9231,4111.7949,4146.6667,4149.2308,4135.8974,4153.8462,4138.4615,4115.8974
4107.1795,4135.8974,4141.5385,4113.3333,3612.3077,4117.9487,4147.1795,4150.2564,4140,4151.2821,4137.9487,4120.5128
4113.3333,4132.8205,4144.6154,4115.8974,3617.4359,4109.2308,4151.2821,4151.2821,4137.4359,4155.8974,4150.2564,4137.9487
4107.6923,4132.8205,4136.9231,4115.8974,3617.4359,4095.8974,4142.0513,4144.6154,4133.8462,4155.8974,4154.359,4136.4103
4102.5641,4129.7436,4131.7949,4115.8974,3632.8205,4101.0256,4146.6667,4147.6923,4136.4103,4153.3333,4153.3333,4127.6923
4100.5128,4123.5897,4126.6667,4107.6923,3648.7179,4100.5128,4147.1795,4145.641,4134.8718,4144.6154,4143.5897,4120
4108.7179,4130.2564,4130.7692,4113.8462,3667.1795,4101.0256,4146.6667,4148.2051,4133.3333,4146.1538,4142.0513,4125.641
4111.7949,4135.3846,4132.8205,4123.5897,3681.0256,4097.9487,4148.2051,4152.3077,4133.8462,4146.6667,4142.5641,4127.1795
4108.7179,4134.359,4126.1538,4120.5128,3688.2051,4091.2821,4151.7949,4149.2308,4134.8718,4140,4143.5897,4122.5641
4113.8462,4136.4103,4128.2051,4122.5641,3704.6154,4095.8974,4148.7179,4150.2564,4136.9231,4143.0769,4155.3846,4132.3077
4109.7436,4132.8205,4124.1026,4115.3846,3716.4103,4092.3077,4129.2308,4146.6667,4136.9231,4140.5128,4153.8462,4131.2821
4111.7949,4129.7436,4124.6154,4114.8718,3723.5897,4094.8718,4137.4359,4144.6154,4137.9487,4140.5128,4153.8462,4129.7436
4111.2821,4129.2308,4123.0769,4119.4872,3726.6667,4095.8974,4148.2051,4142.0513,4135.8974,4145.1282,4154.359,4128.7179
4101.0256,4127.6923,4113.8462,4106.6667,3734.8718,4084.6154,4129.7436,4137.4359,4134.8718,4142.0513,4150.7692,4119.4872
4108.7179,4126.6667,4117.4359,4105.641,3753.3333,4087.1795,4129.2308,4141.0256,4138.4615,4145.641,4165.641,4124.6154
4109.7436,4125.1282,4113.3333,4105.641,3752.8205,4082.5641,4130.7692,4136.4103,4136.4103,4145.1282,4160,4125.641
4106.1538,4130.7692,4110.7692,4109.2308,3758.9744,4077.4359,4127.6923,4133.8462,4133.3333,4141.0256,4145.1282,4122.0513
4109.7436,4131.7949,4115.8974,4114.359,3779.4872,4082.5641,4127.1795,4134.8718,4131.2821,4134.8718,4153.3333,4118.9744
4100.5128,4122.0513,4109.2308,4102.5641,3777.9487,4078.9744,4116.9231,4130.2564,4131.2821,4130.2564,4155.3846,4105.1282
4097.9487,4121.5385,4108.2051,4098.4615,3772.3077,4080,4124.6154,4137.4359,4134.8718,4135.8974,4147.6923,4106.6667
4102.0513,4127.1795,4108.7179,4095.8974,3774.359,4076.4103,4131.2821,4137.9487,4131.2821,4131.2821,4137.9487,4111.2821
4104.1026,4129.2308,4109.7436,4093.8462,3782.0513,4075.3846,4122.0513,4133.8462,4131.2821,4132.8205,4146.1538,4115.8974
4105.1282,4127.1795,4108.7179,4100.5128,3792.8205,4085.1282,4120,4133.8462,4133.8462,4138.4615,4153.8462,4120
4102.5641,4129.2308,4103.0769,4105.1282,3804.1026,4083.0769,4116.4103,4130.7692,4129.2308,4131.2821,4135.8974,4109.7436
4109.7436,4135.8974,4107.1795,4114.8718,3818.4615,4083.5897,4120.5128,4138.9744,4131.2821,4137.4359,4142.5641,4117.9487
4115.3846,4134.8718,4105.641,4117.4359,3821.0256,4089.2308,4130.2564,4142.5641,4135.8974,4143.0769,4165.1282,4131.2821
4123.0769,4136.4103,4103.0769,4118.9744,3824.6154,4095.8974,4140.5128,4145.1282,4132.8205,4141.0256,4170.2564,4131.7949
4127.6923,4137.9487,4107.6923,4123.0769,3835.8974,4096.4103,4138.4615,4150.7692,4133.8462,4143.5897,4170.7692,4137.4359
4119.4872,4131.7949,4106.1538,4109.2308,3846.6667,4088.7179,4118.4615,4143.5897,4136.9231,4141.5385,4172.8205,4138.9744
4124.1026,4130.7692,4106.6667,4104.1026,3859.4872,4094.8718,4123.5897,4141.5385,4135.8974,4140.5128,4178.4615,4137.9487
4118.4615,4131.2821,4096.9231,4098.4615,3861.0256,4094.359,4131.2821,4140,4133.3333,4134.8718,4161.0256,4126.1538
4108.2051,4131.7949,4092.3077,4097.9487,3872.3077,4092.3077,4130.7692,4141.5385,4132.8205,4135.8974,4149.7436,4125.641
4118.9744,4134.359,4106.6667,4118.9744,3890.7692,4104.6154,4147.1795,4148.7179,4135.3846,4144.6154,4166.6667,4141.5385
4116.4103,4132.3077,4102.0513,4116.9231,3888.7179,4098.4615,4143.0769,4135.3846,4133.8462,4134.8718,4162.0513,4131.2821
4113.8462,4133.8462,4095.3846,4102.0513,3895.8974,4087.6923,4124.1026,4127.1795,4132.8205,4132.3077,4157.4359,4132.8205
4125.641,4134.359,4102.0513,4100.5128,3907.6923,4083.5897,4116.9231,4136.4103,4135.8974,4142.0513,4166.6667,4152.8205
4136.4103,4135.8974,4103.5897,4106.6667,3908.7179,4084.6154,4124.6154,4142.5641,4137.4359,4145.641,4172.8205,4158.9744
4138.9744,4135.8974,4100,4111.7949,3917.9487,4095.3846,4134.359,4142.5641,4140.5128,4147.1795,4179.4872,4160.5128
4127.6923,4128.2051,4089.7436,4104.6154,3925.641,4093.8462,4123.5897,4137.4359,4136.4103,4137.9487,4163.5897,4147.1795
4129.7436,4128.7179,4091.7949,4107.1795,3931.7949,4092.8205,4121.5385,4137.4359,4132.8205,4137.4359,4161.0256,4146.1538
4133.3333,4130.7692,4092.3077,4111.2821,3936.9231,4095.3846,4130.7692,4134.8718,4135.8974,4143.5897,4172.3077,4154.359
4125.1282,4130.2564,4082.5641,4108.7179,3937.4359,4095.8974,4133.8462,4135.3846,4137.4359,4138.4615,4158.9744,4144.6154
4129.2308,4132.8205,4086.6667,4117.4359,3943.0769,4099.4872,4133.3333,4141.0256,4136.9231,4141.0256,4156.4103,4144.6154
4129.2308,4132.8205,4089.2308,4117.4359,3952.8205,4093.3333,4121.5385,4131.7949,4133.8462,4142.0513,4170.2564,4148.2051
4127.1795,4133.8462,4090.7692,4121.0256,3970.2564,4100,4127.6923,4135.8974,4134.359,4142.5641,4177.4359,4149.2308
4125.641,4130.7692,4091.7949,4128.2051,3975.3846,4106.6667,4137.9487,4148.2051,4134.359,4143.0769,4173.3333,4146.1538
4122.0513,4126.1538,4089.2308,4121.0256,3974.8718,4098.9744,4132.8205,4143.0769,4132.3077,4139.4872,4167.6923,4136.4103
4134.359,4128.2051,4098.4615,4125.641,3990.2564,4105.1282,4139.4872,4142.0513,4135.3846,4145.1282,4173.8462,4141.5385
4137.4359,4130.7692,4102.0513,4129.7436,3998.9744,4102.0513,4134.359,4141.0256,4137.4359,4144.1026,4171.7949,4144.1026
4134.359,4131.2821,4104.1026,4128.7179,4008.2051,4095.8974,4131.2821,4136.9231,4136.9231,4142.0513,4173.3333,4145.641
4132.8205,4123.5897,4098.4615,4123.0769,4020,4102.5641,4143.0769,4136.9231,4134.359,4137.9487,4167.6923,4141.5385
4124.1026,4117.4359,4084.1026,4108.7179,4023.5897,4101.5385,4140.5128,4139.4872,4132.3077,4132.3077,4144.1026,4122.5641
4130.7692,4128.7179,4093.8462,4116.9231,4040.5128,4102.0513,4141.5385,4148.2051,4136.4103,4141.5385,4153.3333,4134.8718
4134.8718,4131.7949,4101.5385,4125.641,4048.2051,4098.9744,4138.4615,4143.0769,4137.4359,4142.5641,4166.1538,4149.7436
4132.3077,4123.5897,4102.0513,4122.5641,4040,4096.4103,4134.359,4137.4359,4136.9231,4143.5897,4155.3846,4143.0769
4134.359,4123.0769,4103.5897,4120.5128,4040.5128,4101.5385,4140,4144.6154,4136.9231,4142.5641,4145.1282,4139.4872
4129.7436,4128.7179,4096.4103,4116.4103,4049.2308,4097.4359,4132.8205,4142.5641,4134.359,4132.3077,4138.9744,4134.8718
4135.8974,4129.7436,4103.0769,4124.6154,4053.8462,4099.4872,4126.1538,4140.5128,4138.9744,4135.3846,4150.7692,4141.0256
4137.9487,4122.5641,4106.1538,4124.1026,4044.1026,4102.5641,4126.6667,4136.4103,4137.9487,4130.7692,4149.7436,4139.4872
4130.7692,4125.1282,4095.3846,4112.3077,4044.1026,4104.6154,4128.2051,4131.2821,4131.2821,4118.4615,4134.359,4126.1538
4129.7436,4130.2564,4092.8205,4113.8462,4057.4359,4104.1026,4125.1282,4129.2308,4133.3333,4121.0256,4137.9487,4123.0769
4127.1795,4126.6667,4089.7436,4114.359,4052.3077,4093.8462,4114.359,4123.5897,4136.4103,4123.5897,4141.0256,4120.5128
4131.2821,4123.0769,4089.7436,4114.359,4039.4872,4093.8462,4121.5385,4129.2308,4136.4103,4124.1026,4141.5385,4121.5385
4130.7692,4121.5385,4090.2564,4116.4103,4033.3333,4090.2564,4124.6154,4136.4103,4135.3846,4123.0769,4138.9744,4118.9744
4127.6923,4125.641,4091.2821,4120.5128,4034.8718,4092.3077,4122.0513,4136.9231,4136.4103,4123.5897,4138.4615,4117.9487
4128.2051,4124.1026,4089.7436,4116.4103,4032.3077,4103.5897,4130.2564,4134.8718,4136.4103,4123.5897,4137.4359,4119.4872
4122.0513,4120.5128,4083.0769,4102.5641,4024.6154,4092.8205,4118.9744,4123.0769,4131.7949,4115.8974,4126.6667,4107.6923
4126.6667,4127.1795,4089.2308,4110.7692,4034.8718,4090.7692,4112.8205,4126.6667,4132.8205,4120,4134.8718,4113.8462
4123.0769,4123.5897,4089.7436,4111.7949,4032.8205,4103.0769,4120,4135.3846,4134.359,4120,4136.4103,4116.9231
4113.8462,4116.9231,4081.5385,4098.4615,4015.8974,4100,4120,4134.8718,4132.8205,4116.4103,4129.7436,4109.7436
4124.1026,4121.5385,4086.6667,4109.2308,4018.9744,4094.359,4125.1282,4135.8974,4136.4103,4126.6667,4144.1026,4125.641
4119.4872,4124.1026,4080.5128,4108.2051,4020,4086.1538,4122.5641,4131.2821,4136.9231,4120,4134.359,4125.1282
4113.3333,4126.6667,4074.8718,4103.5897,4012.8205,4086.6667,4122.5641,4132.3077,4133.8462,4108.7179,4116.4103,4114.8718
4111.7949,4125.1282,4074.8718,4111.2821,4006.1538,4086.6667,4122.5641,4133.8462,4128.2051,4109.7436,4114.8718,4118.9744
4102.0513,4117.9487,4069.2308,4108.2051,4010.2564,4084.6154,4117.9487,4132.8205,4129.7436,4111.7949,4110.2564,4120.5128
4105.1282,4117.9487,4072.8205,4105.1282,4031.7949,4096.9231,4129.2308,4136.4103,4132.3077,4110.7692,4109.2308,4127.6923
4107.1795,4122.5641,4072.8205,4098.9744,4040.5128,4091.7949,4124.6154,4128.2051,4126.1538,4102.0513,4103.5897,4126.6667
4110.7692,4125.641,4074.359,4098.4615,4043.5897,4093.3333,4122.5641,4134.359,4130.2564,4110.7692,4111.2821,4131.7949
4117.9487,4121.0256,4075.8974,4101.5385,4050.7692,4106.1538,4131.2821,4144.6154,4138.4615,4120.5128,4116.4103,4140
4114.8718,4122.0513,4071.2821,4098.9744,4053.3333,4096.4103,4122.5641,4127.6923,4133.3333,4111.7949,4100,4132.3077
4116.4103,4126.1538,4076.9231,4103.0769,4057.4359,4091.2821,4121.5385,4123.0769,4128.2051,4114.359,4103.0769,4138.4615
4109.2308,4119.4872,4072.8205,4094.8718,4058.9744,4089.2308,4120,4130.2564,4127.1795,4116.9231,4109.2308,4138.9744
4113.3333,4126.6667,4075.3846,4097.9487,4068.2051,4087.6923,4120,4136.9231,4129.7436,4121.5385,4120,4143.0769
4136.9231,4138.4615,4093.8462,4119.4872,4074.8718,4093.8462,4129.2308,4143.0769,4135.8974,4130.2564,4143.0769,4169.2308
4142.0513,4131.2821,4097.4359,4119.4872,4073.8462,4095.8974,4130.2564,4139.4872,4135.3846,4126.1538,4141.5385,4172.3077
4134.359,4123.5897,4093.8462,4114.359,4076.9231,4101.5385,4130.2564,4138.4615,4131.7949,4121.5385,4130.7692,4161.0256
4124.6154,4124.1026,4087.6923,4110.7692,4072.3077,4106.6667,4122.5641,4130.2564,4130.7692,4118.4615,4129.2308,4155.3846
4128.2051,4127.1795,4089.7436,4112.8205,4072.8205,4112.3077,4123.5897,4130.7692,4133.3333,4123.0769,4140.5128,4160
4131.7949,4123.0769,4092.3077,4117.4359,4074.359,4108.7179,4132.3077,4137.4359,4137.4359,4127.1795,4145.1282,4160.5128
4118.4615,4118.4615,4075.3846,4105.1282,4061.0256,4093.3333,4117.4359,4126.1538,4135.3846,4121.0256,4125.1282,4144.6154
4120,4121.5385,4072.3077,4105.641,4061.5385,4100,4117.9487,4126.6667,4132.8205,4121.5385,4121.0256,4147.6923
4123.5897,4121.5385,4078.9744,4115.3846,4059.4872,4097.4359,4124.1026,4132.8205,4131.7949,4116.9231,4131.2821,4152.3077
4123.0769,4121.5385,4082.0513,4118.4615,4053.8462,4083.5897,4114.8718,4132.8205,4133.3333,4113.3333,4136.4103,4151.7949
4129.7436,4124.6154,4088.2051,4118.4615,4069.2308,4092.3077,4123.0769,4136.9231,4132.3077,4117.4359,4137.9487,4154.359
4130.2564,4122.5641,4091.7949,4116.9231,4078.4615,4097.9487,4137.9487,4141.5385,4128.7179,4114.8718,4131.2821,4147.1795
4133.8462,4120.5128,4095.8974,4127.1795,4077.4359,4097.9487,4138.9744,4145.1282,4129.7436,4120,4138.4615,4155.3846
4129.2308,4120.5128,4084.6154,4122.5641,4078.4615,4095.8974,4121.0256,4137.4359,4129.2308,4117.4359,4136.9231,4156.4103
4120,4119.4872,4075.3846,4108.7179,4086.1538,4094.359,4117.9487,4136.4103,4132.8205,4110.2564,4118.4615,4141.0256
4122.0513,4118.4615,4084.1026,4113.3333,4095.3846,4097.9487,4127.6923,4143.0769,4132.8205,4109.2308,4118.4615,4138.4615
4119.4872,4120,4080,4110.7692,4100.5128,4092.3077,4117.4359,4135.8974,4123.0769,4100,4118.9744,4131.2821
4125.641,4127.6923,4083.0769,4113.8462,4115.8974,4095.8974,4121.0256,4139.4872,4125.1282,4098.4615,4126.1538,4135.3846
4128.7179,4123.5897,4086.6667,4123.0769,4120,4100.5128,4125.641,4141.5385,4133.8462,4105.1282,4138.4615,4150.7692
4123.5897,4117.9487,4079.4872,4122.0513,4113.3333,4100,4120,4134.8718,4130.2564,4108.2051,4135.8974,4148.2051
4132.8205,4123.0769,4088.7179,4123.5897,4121.0256,4107.1795,4131.7949,4142.0513,4127.1795,4111.2821,4132.8205,4144.1026
4131.7949,4123.0769,4094.359,4117.9487,4121.5385,4100,4128.7179,4137.4359,4127.1795,4105.1282,4121.0256,4138.9744
4127.6923,4122.5641,4093.3333,4119.4872,4120,4095.3846,4121.5385,4131.7949,4127.6923,4104.6154,4124.1026,4140.5128
4126.6667,4119.4872,4092.8205,4121.5385,4116.9231,4092.3077,4119.4872,4133.3333,4127.1795,4102.5641,4128.7179,4137.4359
4121.5385,4117.4359,4086.1538,4114.8718,4118.4615,4086.1538,4110.7692,4129.2308,4124.1026,4095.8974,4115.8974,4127.6923
4127.6923,4123.5897,4085.641,4119.4872,4131.2821,4092.8205,4115.3846,4132.8205,4124.6154,4104.6154,4124.6154,4138.4615
4122.5641,4121.5385,4080.5128,4115.3846,4127.1795,4086.1538,4108.2051,4130.2564,4125.641,4102.5641,4129.2308,4135.3846
4122.0513,4119.4872,4081.0256,4117.9487,4126.6667,4083.5897,4100.5128,4127.6923,4127.6923,4101.5385,4126.6667,4134.8718
4131.7949,4122.0513,4084.1026,4129.7436,4141.0256,4092.8205,4111.2821,4133.8462,4128.7179,4112.3077,4129.7436,4147.1795
4129.7436,4123.5897,4081.0256,4121.5385,4148.2051,4087.6923,4113.3333,4132.8205,4127.1795,4113.3333,4124.6154,4140.5128
4128.2051,4122.5641,4082.0513,4114.359,4152.3077,4086.1538,4115.3846,4130.2564,4127.6923,4109.7436,4128.7179,4135.8974
4117.9487,4117.9487,4071.7949,4103.5897,4150.2564,4085.641,4112.3077,4122.5641,4125.1282,4100.5128,4127.6923,4131.2821
4117.9487,4122.5641,4074.8718,4101.5385,4155.3846,4089.2308,4112.3077,4124.6154,4128.2051,4104.1026,4129.2308,4134.8718
4129.7436,4128.7179,4084.6154,4111.7949,4158.4615,4096.9231,4111.7949,4128.2051,4131.2821,4109.2308,4131.2821,4142.0513
4122.5641,4124.6154,4075.3846,4106.6667,4147.1795,4099.4872,4107.1795,4124.1026,4126.1538,4097.9487,4116.9231,4132.8205
4123.5897,4122.5641,4080.5128,4106.1538,4141.5385,4108.2051,4118.9744,4132.8205,4126.1538,4101.5385,4117.4359,4131.7949
4127.1795,4126.1538,4085.1282,4111.2821,4138.4615,4098.9744,4111.2821,4134.359,4130.7692,4106.6667,4120,4131.2821
4125.1282,4130.7692,4081.0256,4116.4103,4146.6667,4095.8974,4096.4103,4127.6923,4130.2564,4101.0256,4115.8974,4127.1795
4122.5641,4124.6154,4081.5385,4112.3077,4155.3846,4104.1026,4102.0513,4122.0513,4126.1538,4096.9231,4111.2821,4124.6154
4119.4872,4121.0256,4081.0256,4096.9231,4150.2564,4090.7692,4097.9487,4113.3333,4122.5641,4098.9744,4104.6154,4117.9487
4128.2051,4128.7179,4088.2051,4104.6154,4151.2821,4087.1795,4100.5128,4121.0256,4126.1538,4109.7436,4118.4615,4130.7692
4123.0769,4125.1282,4084.1026,4109.7436,4151.7949,4092.3077,4105.1282,4123.5897,4124.1026,4102.5641,4114.359,4126.1538
4115.8974,4121.0256,4076.9231,4102.0513,4154.359,4090.7692,4103.5897,4120,4118.4615,4090.2564,4101.0256,4106.6667
4126.1538,4122.0513,4085.641,4104.6154,4155.8974,4091.7949,4102.0513,4124.6154,4123.5897,4097.9487,4115.8974,4118.4615
4129.2308,4121.0256,4088.2051,4103.5897,4147.6923,4087.6923,4093.3333,4123.0769,4129.2308,4106.6667,4122.5641,4128.2051
4133.8462,4127.6923,4090.7692,4112.3077,4158.4615,4094.359,4108.2051,4124.1026,4128.2051,4110.7692,4124.1026,4126.6667
4127.1795,4128.2051,4087.6923,4115.3846,4174.8718,4091.7949,4107.1795,4120.5128,4124.1026,4100.5128,4117.9487,4115.3846
4125.641,4127.1795,4084.6154,4113.8462,4176.9231,4080.5128,4087.1795,4119.4872,4126.1538,4100,4112.3077,4113.3333
4138.9744,4127.1795,4089.7436,4119.4872,4174.8718,4086.6667,4101.5385,4128.2051,4131.2821,4111.2821,4123.0769,4130.2564
4127.1795,4120.5128,4078.4615,4104.6154,4168.7179,4090.2564,4107.1795,4119.4872,4123.5897,4098.4615,4105.641,4115.8974
4120.5128,4122.0513,4078.4615,4099.4872,4172.8205,4094.8718,4097.4359,4113.8462,4119.4872,4095.3846,4091.2821,4107.1795
4126.6667,4125.641,4088.2051,4107.1795,4175.3846,4096.4103,4098.9744,4120,4124.6154,4109.2308,4104.6154,4121.5385
4124.6154,4124.1026,4084.6154,4105.1282,4172.8205,4095.3846,4106.6667,4126.6667,4129.2308,4112.8205,4112.8205,4125.1282
4125.1282,4121.5385,4079.4872,4105.641,4171.2821,4102.0513,4112.3077,4131.2821,4128.7179,4108.2051,4112.8205,4122.5641
4120,4120,4072.8205,4098.9744,4161.0256,4093.8462,4102.0513,4118.9744,4125.641,4097.4359,4097.9487,4110.2564
4121.0256,4123.0769,4073.8462,4100.5128,4170.2564,4100.5128,4105.1282,4115.3846,4127.6923,4101.5385,4093.3333,4110.7692
4124.1026,4123.5897,4075.8974,4105.1282,4184.1026,4114.8718,4117.4359,4124.1026,4128.2051,4108.7179,4095.3846,4119.4872
4130.2564,4125.1282,4081.0256,4106.6667,4183.5897,4108.2051,4117.9487,4127.1795,4126.1538,4107.6923,4094.8718,4123.0769
4137.9487,4125.641,4087.6923,4115.3846,4183.0769,4105.1282,4116.9231,4128.7179,4127.6923,4112.3077,4102.0513,4130.2564
4122.0513,4120.5128,4072.3077,4107.1795,4177.9487,4104.1026,4105.1282,4120,4127.6923,4107.6923,4085.641,4116.4103
4123.0769,4127.1795,4076.4103,4104.1026,4186.1538,4108.2051,4111.2821,4121.5385,4128.2051,4108.7179,4076.9231,4118.9744
4140.5128,4133.8462,4095.8974,4112.8205,4194.8718,4109.2308,4121.5385,4131.2821,4128.7179,4115.8974,4087.1795,4139.4872
4140,4130.2564,4091.7949,4109.7436,4189.2308,4102.5641,4111.2821,4130.2564,4126.1538,4112.3077,4082.0513,4137.9487
4142.0513,4130.2564,4091.7949,4110.7692,4186.6667,4110.2564,4115.8974,4132.8205,4128.2051,4112.3077,4080.5128,4143.0769
4144.1026,4129.2308,4097.4359,4111.7949,4183.0769,4109.7436,4117.9487,4131.2821,4132.8205,4116.9231,4083.0769,4156.4103
4149.7436,4131.2821,4104.6154,4121.0256,4186.1538,4107.1795,4118.9744,4134.8718,4133.3333,4125.1282,4084.6154,4167.6923
4146.6667,4127.1795,4100,4123.5897,4186.6667,4106.6667,4125.641,4133.3333,4128.2051,4118.4615,4067.1795,4160
4129.7436,4120,4087.6923,4112.8205,4177.9487,4099.4872,4120,4123.0769,4123.5897,4106.1538,4046.6667,4138.4615
4140.5128,4129.2308,4100.5128,4128.7179,4184.6154,4109.7436,4126.6667,4136.4103,4129.2308,4118.9744,4064.1026,4151.2821
4145.641,4130.2564,4100.5128,4132.3077,4184.1026,4107.6923,4128.7179,4139.4872,4130.7692,4116.4103,4061.0256,4153.3333
4131.2821,4119.4872,4085.1282,4117.4359,4179.4872,4101.5385,4129.2308,4127.1795,4126.1538,4101.5385,4038.9744,4135.8974
4131.2821,4120.5128,4087.1795,4124.1026,4188.7179,4109.7436,4129.2308,4123.5897,4126.6667,4105.1282,4043.5897,4141.0256
4134.8718,4129.7436,4093.8462,4129.2308,4189.2308,4101.5385,4107.6923,4121.5385,4128.2051,4108.7179,4045.641,4146.1538
4140.5128,4131.7949,4100.5128,4129.7436,4184.6154,4096.9231,4106.1538,4127.6923,4129.7436,4115.8974,4052.8205,4154.359
4137.9487,4124.1026,4095.3846,4127.1795,4172.3077,4092.8205,4110.2564,4124.1026,4130.2564,4115.3846,4053.3333,4150.7692
4134.8718,4124.1026,4094.359,4130.2564,4163.5897,4091.2821,4107.1795,4123.5897,4133.3333,4110.7692,4044.6154,4139.4872
4138.4615,4123.5897,4105.1282,4140,4164.6154,4105.1282,4119.4872,4130.7692,4133.8462,4115.3846,4051.2821,4143.5897
4134.8718,4121.0256,4100,4137.9487,4156.4103,4110.2564,4122.0513,4124.1026,4129.2308,4113.8462,4052.3077,4141.0256
4141.0256,4127.1795,4097.4359,4144.1026,4151.7949,4110.7692,4123.0769,4126.6667,4131.2821,4114.8718,4057.9487,4144.6154
4142.5641,4127.6923,4101.0256,4143.0769,4149.2308,4100.5128,4118.9744,4128.2051,4133.3333,4115.3846,4067.1795,4149.7436
4136.4103,4123.5897,4098.4615,4133.3333,4154.359,4097.9487,4120,4118.9744,4130.7692,4117.9487,4063.5897,4144.1026
4131.2821,4117.9487,4093.3333,4133.3333,4161.0256,4109.7436,4133.3333,4120,4132.8205,4120.5128,4059.4872,4134.8718
4123.0769,4116.4103,4087.1795,4125.1282,4153.8462,4097.4359,4119.4872,4122.0513,4134.359,4113.8462,4052.8205,4123.0769
4139.4872,4130.7692,4100.5128,4132.8205,4165.641,4089.7436,4111.7949,4130.2564,4140,4124.1026,4065.641,4140.5128
4148.7179,4133.3333,4107.6923,4145.641,4184.6154,4087.1795,4111.7949,4132.3077,4144.1026,4130.2564,4074.359,4149.7436
4133.8462,4123.5897,4098.9744,4140,4179.4872,4082.0513,4105.1282,4126.6667,4143.5897,4125.1282,4069.7436,4136.9231
4140.5128,4124.6154,4104.1026,4142.0513,4155.3846,4093.8462,4116.9231,4129.2308,4148.2051,4132.8205,4082.0513,4145.641
4145.1282,4126.6667,4105.641,4142.0513,4120,4097.4359,4120,4124.6154,4149.7436,4131.2821,4071.7949,4144.6154
4136.4103,4124.1026,4100.5128,4141.5385,4104.1026,4096.9231,4119.4872,4125.641,4149.2308,4124.1026,4060,4137.9487
4126.1538,4118.9744,4090.7692,4136.4103,4105.641,4098.9744,4122.5641,4127.6923,4150.2564,4119.4872,4066.6667,4135.3846
4125.1282,4120,4087.1795,4133.3333,4104.1026,4095.3846,4121.0256,4127.6923,4147.6923,4120.5128,4066.6667,4129.2308
4139.4872,4123.0769,4101.0256,4150.2564,4098.4615,4094.359,4122.0513,4134.8718,4148.7179,4129.7436,4070.2564,4136.9231
4134.359,4117.9487,4097.9487,4147.1795,4090.7692,4089.7436,4112.8205,4128.2051,4148.7179,4124.1026,4057.9487,4133.8462
4133.3333,4121.0256,4096.9231,4143.5897,4101.0256,4099.4872,4123.5897,4131.7949,4150.7692,4127.6923,4058.4615,4135.3846
4143.5897,4124.6154,4107.1795,4153.3333,4103.5897,4105.1282,4135.8974,4140.5128,4154.8718,4138.4615,4076.9231,4148.2051
4141.0256,4125.1282,4108.2051,4151.7949,4092.3077,4091.2821,4117.9487,4130.7692,4150.7692,4133.8462,4074.359,4144.1026
4147.6923,4125.641,4113.3333,4156.9231,4094.8718,4088.7179,4110.7692,4128.7179,4149.2308,4134.8718,4076.4103,4146.6667
4143.5897,4122.0513,4109.7436,4154.8718,4086.1538,4080,4105.1282,4123.0769,4150.7692,4130.2564,4071.2821,4141.5385
4136.4103,4124.1026,4106.6667,4153.8462,4083.5897,4080,4105.641,4120.5128,4150.2564,4126.6667,4062.0513,4132.8205
4139.4872,4123.0769,4111.2821,4154.8718,4092.8205,4092.3077,4114.8718,4128.2051,4148.7179,4129.7436,4065.1282,4136.4103
4141.5385,4120.5128,4113.3333,4150.2564,4092.3077,4091.7949,4111.7949,4127.6923,4150.7692,4129.2308,4067.1795,4136.9231
4150.2564,4127.1795,4116.9231,4158.9744,4096.9231,4101.5385,4119.4872,4129.2308,4155.8974,4132.3077,4074.8718,4148.2051
4141.5385,4127.1795,4106.1538,4154.359,4096.9231,4102.0513,4113.8462,4125.641,4155.3846,4123.5897,4068.7179,4142.5641
4132.8205,4122.5641,4103.5897,4148.2051,4098.9744,4097.4359,4106.1538,4121.5385,4157.4359,4119.4872,4063.5897,4129.7436
4137.4359,4122.5641,4108.7179,4152.3077,4106.1538,4101.0256,4117.4359,4122.5641,4158.4615,4125.1282,4065.1282,4130.2564
4136.4103,4125.641,4097.9487,4152.3077,4103.0769,4090.7692,4107.6923,4118.9744,4153.3333,4124.6154,4057.4359,4129.7436
4146.6667,4129.7436,4101.0256,4168.2051,4106.1538,4091.7949,4098.4615,4123.0769,4156.4103,4129.2308,4067.6923,4145.641
4153.3333,4128.7179,4107.6923,4175.8974,4107.6923,4096.9231,4105.1282,4124.6154,4165.1282,4131.7949,4079.4872,4156.9231
4164.6154,4131.7949,4111.2821,4172.8205,4106.6667,4094.8718,4115.3846,4129.7436,4172.3077,4141.5385,4101.0256,4169.2308
4176.9231,4131.7949,4116.4103,4177.9487,4103.0769,4094.359,4119.4872,4132.8205,4175.3846,4148.2051,4121.0256,4185.1282
4169.7436,4125.641,4110.2564,4172.8205,4096.9231,4089.2308,4105.641,4119.4872,4173.8462,4133.3333,4101.5385,4175.3846
4181.5385,4133.3333,4119.4872,4174.359,4107.6923,4094.359,4108.7179,4123.0769,4178.4615,4132.3077,4100.5128,4183.0769
4193.3333,4137.4359,4124.1026,4174.359,4109.7436,4089.7436,4108.2051,4124.6154,4182.5641,4135.8974,4115.3846,4192.8205
4185.641,4131.2821,4114.359,4168.2051,4102.0513,4084.6154,4100.5128,4114.359,4182.0513,4133.3333,4114.359,4185.1282
4185.641,4128.7179,4122.5641,4172.3077,4103.5897,4094.359,4112.8205,4121.5385,4178.9744,4135.3846,4111.7949,4187.1795
4185.641,4131.2821,4129.7436,4165.641,4106.1538,4088.7179,4112.8205,4124.6154,4173.8462,4132.3077,4097.4359,4183.5897
4187.6923,4132.3077,4132.3077,4160.5128,4112.3077,4087.6923,4108.7179,4123.0769,4177.4359,4137.9487,4098.9744,4184.1026
4173.3333,4121.5385,4124.6154,4152.8205,4108.2051,4090.7692,4102.5641,4116.4103,4181.0256,4134.8718,4100,4175.8974
4152.3077,4116.9231,4112.3077,4143.0769,4111.2821,4093.3333,4107.1795,4114.359,4174.359,4120,4079.4872,4150.2564
4157.9487,4124.1026,4115.8974,4155.8974,4133.3333,4107.6923,4129.7436,4128.7179,4171.7949,4125.1282,4076.4103,4148.2051
4161.5385,4122.5641,4114.8718,4159.4872,4132.8205,4105.641,4118.4615,4130.2564,4174.8718,4130.2564,4073.3333,4148.2051
4162.5641,4123.0769,4115.3846,4160,4129.7436,4104.1026,4110.2564,4129.7436,4175.3846,4127.6923,4073.8462,4148.7179
4161.0256,4124.6154,4111.2821,4159.4872,4135.8974,4105.1282,4117.9487,4126.6667,4173.3333,4123.0769,4077.9487,4150.2564
4152.8205,4122.0513,4102.0513,4144.1026,4133.3333,4102.5641,4119.4872,4125.1282,4177.4359,4123.0769,4078.4615,4146.6667
4156.4103,4120.5128,4109.2308,4141.5385,4136.9231,4107.6923,4124.6154,4131.7949,4182.0513,4127.6923,4082.5641,4151.2821
4148.2051,4119.4872,4108.7179,4141.0256,4138.9744,4100.5128,4115.8974,4124.1026,4175.8974,4114.359,4061.5385,4138.4615
4141.0256,4119.4872,4104.6154,4140,4137.9487,4102.0513,4120.5128,4125.641,4172.8205,4108.7179,4049.2308,4127.6923
4140,4115.8974,4102.0513,4133.8462,4129.7436,4107.6923,4129.2308,4128.2051,4174.8718,4110.7692,4053.8462,4125.1282
4132.3077,4116.9231,4100.5128,4126.6667,4128.2051,4102.5641,4118.9744,4123.0769,4171.2821,4104.6154,4044.6154,4118.9744
4137.9487,4124.6154,4114.8718,4141.0256,4141.0256,4108.7179,4121.0256,4134.8718,4173.8462,4110.2564,4048.2051,4130.7692
4143.0769,4124.1026,4118.9744,4142.0513,4131.7949,4104.1026,4123.5897,4142.5641,4174.8718,4110.2564,4052.8205,4135.3846
4146.1538,4121.5385,4116.9231,4138.4615,4123.5897,4104.6154,4132.8205,4143.0769,4170.7692,4108.2051,4056.9231,4138.4615
4142.5641,4119.4872,4113.3333,4137.9487,4131.2821,4108.2051,4135.8974,4139.4872,4170.2564,4103.5897,4053.8462,4140
4131.7949,4121.0256,4102.5641,4131.2821,4133.8462,4095.8974,4118.9744,4128.2051,4170.2564,4088.2051,4032.8205,4125.641
4143.0769,4126.1538,4109.7436,4137.4359,4126.1538,4102.0513,4123.5897,4131.7949,4172.3077,4090.2564,4037.4359,4132.3077
4147.6923,4124.1026,4114.359,4132.8205,4104.1026,4105.641,4124.1026,4131.7949,4171.7949,4095.8974,4049.2308,4142.0513
4145.641,4127.6923,4116.4103,4133.8462,4099.4872,4104.1026,4116.4103,4126.6667,4172.3077,4092.3077,4049.2308,4140.5128
4148.2051,4131.2821,4122.5641,4150.7692,4111.2821,4107.1795,4120,4128.7179,4174.8718,4088.7179,4041.5385,4143.0769
4142.0513,4126.1538,4118.4615,4141.5385,4109.2308,4098.4615,4116.4103,4125.641,4170.7692,4089.2308,4030.2564,4143.0769
4142.0513,4124.1026,4119.4872,4127.6923,4109.7436,4093.8462,4114.8718,4126.6667,4170.2564,4093.3333,4037.4359,4148.7179
4131.7949,4118.9744,4112.3077,4118.4615,4108.7179,4095.3846,4114.8718,4125.1282,4169.7436,4081.5385,4027.1795,4134.359
4127.6923,4122.0513,4107.6923,4119.4872,4116.4103,4105.1282,4123.0769,4126.1538,4168.7179,4080,4018.4615,4128.7179
4145.1282,4128.7179,4119.4872,4129.7436,4128.2051,4108.2051,4129.7436,4133.3333,4173.8462,4098.4615,4047.1795,4153.3333
4141.5385,4121.5385,4120,4130.7692,4121.0256,4088.2051,4111.2821,4131.7949,4174.8718,4098.4615,4055.8974,4153.8462
4133.8462,4117.4359,4116.9231,4136.9231,4124.6154,4086.1538,4107.6923,4131.7949,4171.2821,4093.3333,4048.7179,4147.6923
4131.7949,4117.9487,4112.3077,4133.3333,4130.7692,4091.7949,4111.2821,4128.7179,4170.7692,4089.2308,4046.1538,4143.5897
4131.2821,4120,4111.2821,4131.2821,4122.0513,4094.8718,4117.9487,4133.8462,4171.7949,4088.7179,4043.5897,4140
4137.4359,4123.0769,4113.8462,4143.0769,4112.8205,4105.641,4133.3333,4144.1026,4170.7692,4094.359,4049.2308,4145.641
4138.9744,4125.1282,4107.1795,4140,4107.1795,4102.5641,4126.6667,4137.4359,4169.7436,4090.7692,4051.2821,4144.1026
4144.1026,4124.6154,4115.3846,4144.6154,4117.9487,4104.1026,4126.1538,4138.4615,4172.8205,4095.3846,4061.0256,4150.2564
4134.8718,4119.4872,4115.3846,4147.1795,4125.1282,4107.6923,4131.7949,4137.4359,4168.7179,4090.2564,4051.2821,4144.6154
4126.1538,4121.5385,4103.0769,4142.5641,4124.6154,4106.6667,4132.8205,4135.8974,4163.5897,4080.5128,4033.8462,4130.7692
4136.4103,4124.1026,4107.1795,4151.2821,4126.6667,4112.8205,4142.5641,4144.1026,4167.6923,4088.7179,4049.2308,4141.5385
4132.8205,4121.0256,4102.5641,4146.6667,4123.5897,4107.1795,4131.2821,4133.8462,4165.641,4089.7436,4050.7692,4137.4359
4133.8462,4124.1026,4097.9487,4145.1282,4129.7436,4107.6923,4124.6154,4133.3333,4164.6154,4090.7692,4049.7436,4132.8205
4134.359,4121.0256,4095.3846,4151.7949,4125.641,4107.1795,4126.1538,4140,4166.6667,4091.7949,4052.8205,4135.8974
4128.7179,4119.4872,4092.8205,4153.3333,4120,4100.5128,4122.0513,4133.3333,4163.5897,4088.7179,4048.2051,4129.7436
4141.0256,4125.641,4103.0769,4162.0513,4131.7949,4108.2051,4133.8462,4140,4164.6154,4092.3077,4056.4103,4134.359
4135.8974,4120,4100.5128,4151.2821,4126.6667,4104.6154,4138.9744,4144.6154,4165.641,4085.1282,4052.8205,4127.6923
4122.0513,4114.8718,4091.2821,4140,4124.6154,4104.1026,4140.5128,4140,4164.1026,4078.4615,4047.1795,4119.4872
4122.0513,4117.9487,4089.2308,4143.5897,4128.2051,4107.6923,4133.8462,4136.4103,4164.6154,4080,4048.7179,4118.9744
4124.6154,4122.0513,4093.8462,4144.1026,4119.4872,4104.6154,4123.5897,4137.4359,4166.6667,4078.9744,4047.6923,4115.3846
4125.1282,4119.4872,4097.9487,4144.1026,4118.4615,4115.3846,4143.0769,4142.0513,4167.1795,4079.4872,4048.2051,4115.8974
4117.9487,4116.9231,4085.1282,4135.8974,4123.5897,4109.7436,4138.9744,4135.3846,4163.5897,4077.4359,4043.5897,4108.2051
4128.7179,4128.2051,4090.2564,4142.0513,4129.2308,4094.359,4114.359,4138.9744,4165.641,4086.1538,4058.4615,4115.8974
4140,4132.8205,4104.1026,4157.4359,4130.7692,4094.8718,4112.3077,4144.1026,4168.2051,4090.7692,4070.7692,4128.7179
4127.6923,4123.5897,4094.359,4152.3077,4134.359,4102.5641,4124.1026,4138.4615,4163.0769,4081.5385,4052.3077,4114.8718
4130.2564,4124.1026,4095.3846,4153.8462,4144.6154,4106.1538,4131.7949,4140,4162.0513,4087.6923,4056.9231,4117.9487
4136.9231,4127.6923,4102.5641,4163.0769,4142.0513,4090.7692,4110.7692,4128.7179,4162.0513,4093.8462,4068.2051,4126.1538
4133.8462,4125.1282,4101.0256,4166.6667,4142.0513,4086.1538,4097.4359,4118.4615,4162.0513,4091.2821,4059.4872,4119.4872
4121.0256,4115.8974,4086.1538,4152.8205,4141.5385,4084.1026,4104.6154,4119.4872,4160.5128,4082.5641,4048.7179,4109.2308
4105.641,4109.7436,4065.641,4130.7692,4128.7179,4066.6667,4094.8718,4111.7949,4153.3333,4071.7949,4036.9231,4091.2821
4114.8718,4117.4359,4075.8974,4139.4872,4130.2564,4069.7436,4088.7179,4113.3333,4155.3846,4077.9487,4043.0769,4094.359
4112.8205,4116.4103,4077.9487,4137.4359,4131.2821,4067.1795,4077.9487,4107.1795,4154.8718,4071.2821,4038.4615,4091.7949
4098.4615,4109.7436,4059.4872,4112.8205,4125.1282,4060,4071.2821,4095.8974,4148.7179,4061.5385,4024.6154,4075.8974
4102.5641,4112.3077,4062.0513,4113.3333,4123.5897,4066.6667,4078.9744,4105.641,4150.2564,4075.3846,4031.7949,4082.5641
4101.0256,4116.9231,4068.2051,4120.5128,4121.0256,4060.5128,4069.2308,4109.2308,4151.2821,4078.4615,4029.2308,4083.0769
4104.6154,4121.5385,4071.7949,4128.7179,4127.1795,4060.5128,4067.1795,4107.1795,4152.8205,4079.4872,4034.359,4086.1538
4108.2051,4118.4615,4068.2051,4124.6154,4129.7436,4066.1538,4076.9231,4108.7179,4154.359,4082.0513,4040.5128,4088.2051
4101.0256,4116.9231,4064.1026,4115.8974,4134.8718,4069.2308,4084.6154,4113.8462,4152.8205,4077.4359,4034.359,4083.0769
4103.0769,4119.4872,4072.3077,4127.6923,4147.1795,4076.4103,4091.2821,4114.8718,4153.3333,4078.9744,4040,4087.6923
4103.0769,4116.9231,4070.2564,4125.641,4142.5641,4069.7436,4078.9744,4106.1538,4151.7949,4076.9231,4037.9487,4081.0256
4104.1026,4117.4359,4064.1026,4117.9487,4142.5641,4074.359,4081.5385,4110.7692,4148.7179,4078.4615,4033.3333,4077.9487
4102.0513,4116.4103,4056.4103,4114.359,4145.641,4080.5128,4088.2051,4107.6923,4144.6154,4077.9487,4030.2564,4075.3846
4099.4872,4118.4615,4054.359,4116.9231,4140.5128,4071.7949,4078.9744,4100,4145.1282,4077.9487,4034.8718,4071.7949
4103.0769,4121.5385,4063.0769,4125.641,4138.4615,4076.9231,4084.1026,4108.2051,4148.2051,4082.0513,4045.1282,4076.4103
4098.9744,4122.0513,4062.0513,4123.0769,4140.5128,4077.4359,4086.1538,4109.7436,4146.6667,4077.4359,4038.9744,4073.3333
4115.8974,4128.2051,4074.8718,4133.3333,4152.3077,4072.3077,4084.1026,4117.4359,4149.7436,4092.3077,4060.5128,4092.8205
4124.1026,4126.1538,4083.0769,4134.8718,4152.3077,4068.2051,4081.5385,4121.0256,4151.7949,4098.9744,4074.359,4101.5385
4107.1795,4121.0256,4071.2821,4120.5128,4146.6667,4070.7692,4078.4615,4108.7179,4148.2051,4081.5385,4050.7692,4081.5385
4104.1026,4118.9744,4070.2564,4122.0513,4146.1538,4076.4103,4082.5641,4104.1026,4147.1795,4076.4103,4044.6154,4077.4359
4101.5385,4115.8974,4068.2051,4118.4615,4134.8718,4062.5641,4072.3077,4099.4872,4140,4076.4103,4042.0513,4071.2821
4100.5128,4120,4068.7179,4124.1026,4138.4615,4060,4071.2821,4096.9231,4137.9487,4075.3846,4040.5128,4066.1538
4101.5385,4121.0256,4068.7179,4132.3077,4146.1538,4064.6154,4075.3846,4096.9231,4143.0769,4072.3077,4045.641,4067.1795
4105.1282,4121.5385,4068.7179,4131.2821,4147.1795,4063.5897,4071.7949,4099.4872,4143.5897,4074.359,4053.8462,4069.7436
4119.4872,4124.6154,4078.9744,4144.6154,4152.3077,4074.8718,4086.1538,4112.8205,4142.5641,4088.2051,4066.1538,4087.1795
4113.3333,4120,4077.9487,4143.5897,4145.1282,4078.4615,4097.4359,4116.4103,4141.5385,4088.7179,4060.5128,4086.1538
4104.1026,4117.4359,4076.4103,4131.7949,4145.641,4087.1795,4105.641,4115.8974,4140.5128,4083.0769,4062.5641,4080.5128
4105.641,4118.4615,4076.9231,4131.7949,4150.2564,4090.7692,4101.0256,4112.8205,4141.5385,4082.5641,4072.8205,4085.1282
4108.7179,4122.5641,4075.3846,4138.4615,4143.5897,4074.8718,4075.3846,4105.641,4142.5641,4085.1282,4068.2051,4084.6154
4119.4872,4127.1795,4089.2308,4149.7436,4148.2051,4071.7949,4076.9231,4111.7949,4145.1282,4093.3333,4074.359,4094.8718
4108.2051,4119.4872,4087.6923,4138.4615,4150.2564,4071.7949,4082.0513,4107.1795,4141.0256,4082.0513,4068.2051,4086.6667
4098.4615,4117.9487,4084.1026,4132.8205,4150.2564,4075.3846,4081.5385,4104.1026,4138.4615,4076.4103,4053.8462,4073.8462
4107.1795,4120,4090.2564,4142.0513,4154.359,4080,4086.6667,4110.2564,4142.0513,4091.2821,4058.9744,4083.5897
4100,4116.9231,4082.0513,4132.3077,4155.8974,4070.7692,4080,4105.641,4140.5128,4094.359,4055.3846,4086.1538
4100,4117.9487,4080.5128,4134.359,4162.0513,4076.4103,4083.5897,4111.2821,4138.9744,4091.2821,4048.7179,4086.1538
4100,4117.4359,4077.9487,4135.3846,4157.4359,4081.5385,4085.1282,4112.8205,4134.8718,4082.0513,4040,4077.9487
4102.5641,4121.5385,4079.4872,4130.7692,4157.4359,4085.641,4085.641,4108.7179,4134.8718,4085.641,4047.6923,4082.5641
4115.3846,4125.641,4090.2564,4142.5641,4161.5385,4089.2308,4083.5897,4112.8205,4141.0256,4096.4103,4065.641,4106.6667
4109.2308,4120.5128,4080,4134.359,4144.1026,4070.7692,4067.1795,4109.2308,4136.4103,4081.5385,4049.7436,4099.4872
4106.6667,4118.9744,4078.9744,4125.1282,4135.8974,4070.2564,4081.5385,4115.3846,4132.8205,4076.4103,4042.0513,4092.8205
4110.7692,4120.5128,4088.7179,4128.7179,4145.1282,4081.0256,4095.3846,4116.4103,4136.4103,4086.1538,4051.2821,4102.5641
4114.8718,4123.5897,4089.2308,4134.359,4155.3846,4077.9487,4085.641,4110.2564,4139.4872,4093.3333,4058.9744,4110.2564
4117.9487,4122.5641,4090.2564,4136.4103,4156.9231,4074.359,4087.6923,4115.8974,4138.4615,4093.3333,4064.1026,4116.9231
4108.7179,4117.9487,4085.1282,4127.6923,4150.2564,4068.2051,4086.1538,4113.8462,4135.3846,4084.6154,4049.7436,4106.6667
4114.359,4122.0513,4091.2821,4137.9487,4160,4074.8718,4088.7179,4116.4103,4138.4615,4088.7179,4054.359,4108.2051
4115.8974,4122.0513,4094.359,4140.5128,4166.1538,4080.5128,4091.2821,4120,4137.9487,4088.2051,4067.1795,4112.8205
4098.9744,4117.4359,4082.0513,4125.641,4162.0513,4084.1026,4092.8205,4115.8974,4133.8462,4077.9487,4058.4615,4101.0256
4104.6154,4119.4872,4087.6923,4132.3077,4166.6667,4088.7179,4097.9487,4119.4872,4136.9231,4084.6154,4059.4872,4107.1795
4118.4615,4121.5385,4100.5128,4142.5641,4165.1282,4076.4103,4092.3077,4122.0513,4136.4103,4093.8462,4065.1282,4118.9744
4124.6154,4122.0513,4102.5641,4145.1282,4164.1026,4081.5385,4104.1026,4127.1795,4133.8462,4095.8974,4072.8205,4128.2051
4118.9744,4117.4359,4089.2308,4132.3077,4163.0769,4083.0769,4109.2308,4121.0256,4132.3077,4086.6667,4072.3077,4120.5128
4112.3077,4116.4103,4086.6667,4117.4359,4158.9744,4065.641,4091.7949,4111.2821,4132.3077,4078.9744,4066.1538,4108.2051
4120.5128,4122.0513,4098.4615,4123.0769,4164.6154,4073.3333,4100,4118.4615,4136.4103,4090.7692,4074.8718,4119.4872
4117.4359,4119.4872,4091.7949,4117.9487,4165.641,4082.5641,4108.7179,4119.4872,4135.3846,4093.8462,4070.2564,4114.359
4112.3077,4115.3846,4091.2821,4111.2821,4166.6667,4081.0256,4107.6923,4121.5385,4132.8205,4093.3333,4068.7179,4105.1282
4111.7949,4115.8974,4094.8718,4114.8718,4166.6667,4083.0769,4111.2821,4118.9744,4131.7949,4097.4359,4076.4103,4106.6667
4117.4359,4122.5641,4094.8718,4118.9744,4170.2564,4084.6154,4104.6154,4110.7692,4132.3077,4104.1026,4075.8974,4110.7692
4126.6667,4125.1282,4104.6154,4126.6667,4181.5385,4086.6667,4095.3846,4114.359,4136.9231,4116.4103,4086.6667,4125.641
4111.2821,4114.8718,4094.8718,4115.8974,4175.3846,4081.0256,4089.2308,4109.7436,4133.3333,4108.7179,4082.0513,4111.7949
4107.6923,4115.3846,4086.6667,4114.8718,4169.7436,4082.5641,4097.9487,4113.8462,4130.7692,4104.6154,4078.4615,4101.5385
4124.1026,4123.5897,4102.5641,4130.7692,4169.7436,4088.2051,4102.5641,4122.0513,4137.4359,4117.4359,4097.4359,4120
4122.5641,4123.0769,4107.1795,4127.1795,4166.6667,4086.6667,4093.3333,4111.2821,4136.9231,4115.8974,4099.4872,4118.9744
4114.8718,4117.9487,4101.0256,4122.5641,4174.359,4093.3333,4099.4872,4109.2308,4131.2821,4107.1795,4090.7692,4108.2051
4106.1538,4115.8974,4091.7949,4118.9744,4173.3333,4090.7692,4091.2821,4111.2821,4130.7692,4096.9231,4083.0769,4101.0256
4109.7436,4123.0769,4095.8974,4118.9744,4171.2821,4093.8462,4087.6923,4114.359,4133.8462,4102.5641,4090.7692,4106.6667
4119.4872,4124.6154,4104.1026,4124.6154,4175.8974,4105.1282,4108.2051,4121.5385,4132.3077,4112.8205,4100.5128,4113.8462
4109.7436,4121.5385,4097.9487,4122.0513,4175.8974,4102.0513,4109.7436,4121.0256,4125.641,4100.5128,4086.6667,4100
4109.2308,4123.5897,4096.4103,4122.5641,4181.5385,4106.6667,4109.7436,4117.9487,4127.6923,4093.3333,4083.0769,4098.9744
4114.359,4121.5385,4090.2564,4114.8718,4177.9487,4096.9231,4098.9744,4109.2308,4130.7692,4095.3846,4087.6923,4103.5897
4117.9487,4125.1282,4094.359,4116.4103,4171.7949,4080,4082.5641,4105.1282,4130.2564,4103.0769,4094.359,4107.6923
4121.5385,4127.6923,4109.7436,4127.1795,4172.3077,4085.1282,4091.7949,4110.2564,4132.3077,4108.2051,4102.0513,4111.7949
4113.3333,4119.4872,4101.5385,4116.4103,4165.641,4081.5385,4094.359,4109.2308,4129.7436,4101.5385,4093.8462,4102.0513
4118.9744,4122.0513,4101.5385,4126.1538,4170.7692,4082.5641,4097.4359,4115.8974,4129.7436,4110.7692,4107.6923,4107.6923
4121.0256,4126.6667,4105.641,4144.1026,4175.3846,4090.2564,4098.4615,4112.8205,4131.7949,4111.2821,4115.3846,4108.7179
4111.7949,4124.1026,4095.8974,4137.4359,4169.2308,4087.6923,4092.3077,4107.1795,4133.3333,4104.1026,4103.5897,4098.4615
4117.9487,4124.1026,4096.9231,4137.4359,4166.6667,4087.6923,4099.4872,4118.4615,4135.8974,4112.8205,4110.7692,4109.7436
4118.9744,4127.1795,4100.5128,4143.0769,4164.6154,4088.2051,4100.5128,4114.8718,4132.3077,4112.3077,4113.3333,4110.7692
4122.0513,4131.2821,4104.1026,4151.7949,4174.8718,4094.8718,4094.8718,4108.7179,4131.7949,4114.8718,4115.8974,4105.1282
4127.6923,4128.2051,4108.2051,4152.3077,4182.5641,4091.7949,4083.5897,4110.7692,4132.3077,4120.5128,4119.4872,4107.6923
4130.7692,4122.5641,4110.7692,4143.5897,4181.5385,4092.3077,4089.7436,4113.8462,4130.7692,4118.4615,4120.5128,4112.8205
4136.9231,4123.0769,4111.7949,4143.0769,4185.1282,4107.1795,4110.2564,4122.0513,4133.8462,4121.0256,4133.8462,4124.1026
4136.9231,4124.6154,4104.1026,4138.9744,4180.5128,4095.3846,4095.3846,4117.9487,4135.3846,4124.6154,4139.4872,4128.2051
4153.8462,4132.3077,4118.4615,4152.3077,4184.1026,4090.7692,4094.8718,4120.5128,4138.4615,4135.3846,4156.4103,4149.2308
4168.7179,4134.359,4132.8205,4163.0769,4188.2051,4103.5897,4114.359,4127.1795,4140,4139.4872,4172.3077,4167.6923
4171.7949,4132.3077,4130.2564,4156.4103,4183.5897,4100,4109.7436,4121.5385,4140,4139.4872,4178.9744,4171.7949
4191.2821,4136.9231,4138.9744,4167.6923,4184.1026,4092.3077,4103.5897,4118.4615,4143.5897,4154.8718,4207.1795,4196.4103
4192.3077,4136.4103,4135.8974,4168.7179,4179.4872,4084.1026,4097.9487,4112.8205,4142.0513,4155.8974,4212.8205,4202.5641
4185.641,4134.359,4129.7436,4162.5641,4178.9744,4086.1538,4100,4111.2821,4138.9744,4148.2051,4199.4872,4192.8205
4187.1795,4132.8205,4133.3333,4166.1538,4183.5897,4087.1795,4098.4615,4107.6923,4137.4359,4149.2308,4196.9231,4190.7692
4182.0513,4131.7949,4134.8718,4167.6923,4185.641,4084.6154,4089.7436,4106.1538,4135.3846,4151.7949,4195.3846,4184.6154
4184.1026,4127.1795,4140.5128,4174.359,4188.7179,4102.0513,4104.6154,4116.9231,4138.4615,4153.8462,4193.3333,4180.5128
4176.9231,4120,4131.7949,4168.7179,4184.1026,4104.1026,4107.1795,4109.7436,4136.4103,4144.1026,4181.0256,4165.641
4168.2051,4124.6154,4128.7179,4166.1538,4193.3333,4098.4615,4102.0513,4108.2051,4135.8974,4144.1026,4178.4615,4160.5128
4164.1026,4124.6154,4129.2308,4168.7179,4201.0256,4100.5128,4105.1282,4116.9231,4137.4359,4143.5897,4182.5641,4161.5385
4161.5385,4121.5385,4126.1538,4165.1282,4196.4103,4097.4359,4104.6154,4113.8462,4132.3077,4137.4359,4175.3846,4146.1538
4169.7436,4125.1282,4136.9231,4176.4103,4203.5897,4104.1026,4117.4359,4118.4615,4131.7949,4147.6923,4183.0769,4151.2821
4157.4359,4123.0769,4129.7436,4173.3333,4205.641,4104.1026,4116.4103,4115.3846,4135.3846,4140.5128,4176.4103,4148.2051
4145.641,4121.5385,4117.9487,4164.6154,4205.1282,4101.5385,4108.7179,4111.7949,4133.8462,4127.6923,4162.5641,4132.3077
4151.2821,4124.1026,4122.5641,4167.6923,4206.1538,4101.0256,4111.7949,4117.4359,4128.2051,4135.3846,4166.1538,4134.359
4144.1026,4122.5641,4118.4615,4160,4204.1026,4097.4359,4110.7692,4115.8974,4124.6154,4135.3846,4158.4615,4129.7436
4138.9744,4122.0513,4118.4615,4161.5385,4211.2821,4113.3333,4124.6154,4125.641,4130.2564,4132.3077,4158.9744,4125.641
