"AF3","F7","F3","FC5","T7","P7","O1","O2","FC6","F4","F8","AF4"
4116.4103,4131.2821,4135.3846,4146.1538,4131.7949,4085.641,4109.7436,4122.5641,4113.8462,4120.5128,4165.641,4134.359
4113.3333,4127.1795,4131.7949,4134.359,4135.3846,4089.7436,4117.9487,4126.1538,4118.4615,4119.4872,4162.0513,4130.7692
4107.1795,4122.0513,4125.1282,4126.1538,4134.359,4103.0769,4130.2564,4132.8205,4110.2564,4109.7436,4137.4359,4116.4103
4119.4872,4130.2564,4135.3846,4136.4103,4134.359,4098.9744,4118.4615,4134.359,4111.2821,4115.8974,4146.6667,4125.1282
4132.8205,4137.9487,4146.1538,4145.641,4141.5385,4098.4615,4115.3846,4130.2564,4117.4359,4125.641,4171.7949,4145.641
4125.1282,4128.7179,4135.8974,4141.0256,4132.8205,4109.7436,4128.2051,4129.2308,4114.359,4120,4164.6154,4139.4872
4103.5897,4120.5128,4120.5128,4126.6667,4121.5385,4104.1026,4116.9231,4122.5641,4099.4872,4105.1282,4138.9744,4109.7436
4102.5641,4124.1026,4122.5641,4129.2308,4134.8718,4102.0513,4114.8718,4122.5641,4096.9231,4105.641,4140,4108.7179
4121.5385,4130.2564,4133.8462,4139.4872,4140,4109.2308,4127.6923,4130.2564,4105.1282,4113.8462,4151.2821,4127.1795
4128.7179,4130.7692,4137.4359,4141.5385,4129.2308,4107.1795,4125.1282,4130.7692,4105.641,4113.3333,4146.1538,4129.2308
4117.9487,4121.5385,4128.7179,4137.9487,4126.6667,4108.2051,4124.6154,4130.7692,4102.5641,4109.2308,4142.0513,4122.0513
4109.7436,4120.5128,4120.5128,4131.7949,4129.2308,4108.7179,4125.641,4131.7949,4097.9487,4104.1026,4142.0513,4120
4122.0513,4132.8205,4129.7436,4141.0256,4129.2308,4107.6923,4122.5641,4135.8974,4104.6154,4110.2564,4149.2308,4131.7949
4128.2051,4133.3333,4132.8205,4151.2821,4129.2308,4111.2821,4124.6154,4134.8718,4111.7949,4113.8462,4148.7179,4136.4103
4112.3077,4126.1538,4117.9487,4136.9231,4136.4103,4114.8718,4132.8205,4130.2564,4102.0513,4104.1026,4132.8205,4125.641
4114.8718,4130.2564,4120,4133.8462,4142.5641,4112.8205,4134.359,4131.2821,4103.0769,4110.2564,4138.4615,4135.8974
4135.3846,4137.9487,4141.0256,4157.9487,4135.3846,4100.5128,4116.4103,4128.2051,4113.3333,4122.0513,4154.8718,4153.3333
4134.359,4134.8718,4144.1026,4164.6154,4130.7692,4097.4359,4106.1538,4118.4615,4105.641,4116.4103,4141.5385,4146.6667
4121.0256,4130.7692,4130.2564,4143.0769,4136.4103,4100.5128,4111.7949,4113.8462,4092.3077,4108.2051,4120.5128,4137.4359
4119.4872,4130.2564,4129.2308,4133.3333,4137.9487,4100.5128,4120,4124.1026,4098.4615,4111.2821,4130.2564,4143.5897
4113.8462,4122.5641,4130.7692,4140,4130.7692,4106.1538,4120,4131.2821,4109.7436,4115.3846,4142.0513,4145.1282
4103.0769,4121.5385,4124.6154,4138.9744,4124.1026,4105.641,4108.2051,4122.5641,4102.0513,4112.8205,4126.6667,4134.8718
4117.4359,4136.4103,4128.7179,4144.6154,4126.1538,4101.0256,4112.3077,4125.641,4101.5385,4114.359,4130.2564,4145.641
4125.641,4137.9487,4131.7949,4143.5897,4128.2051,4104.1026,4122.0513,4131.7949,4108.7179,4118.9744,4146.1538,4154.8718
4114.359,4127.6923,4126.6667,4131.2821,4128.2051,4108.2051,4112.8205,4125.1282,4107.1795,4122.0513,4140.5128,4148.2051
4120,4131.2821,4133.8462,4144.1026,4131.2821,4106.6667,4108.2051,4124.1026,4114.8718,4129.2308,4146.6667,4161.0256
4129.2308,4135.8974,4137.9487,4151.2821,4135.3846,4100.5128,4113.8462,4124.1026,4119.4872,4126.6667,4154.8718,4165.641
4129.2308,4132.3077,4136.9231,4139.4872,4141.5385,4104.6154,4120.5128,4128.7179,4115.8974,4124.1026,4153.3333,4156.9231
4131.7949,4129.7436,4141.5385,4149.7436,4141.0256,4110.7692,4123.0769,4138.9744,4121.0256,4129.7436,4156.9231,4165.641
4127.1795,4130.2564,4137.9487,4158.9744,4134.359,4107.1795,4120,4136.9231,4122.5641,4123.0769,4152.8205,4162.0513
4120,4132.3077,4130.7692,4152.8205,4135.3846,4111.2821,4121.5385,4129.7436,4118.9744,4116.4103,4148.2051,4147.1795
4120.5128,4131.2821,4131.7949,4148.2051,4135.8974,4116.9231,4121.0256,4130.7692,4118.9744,4119.4872,4148.2051,4147.1795
4118.9744,4128.2051,4132.8205,4144.1026,4133.3333,4112.8205,4119.4872,4137.9487,4125.1282,4118.9744,4149.2308,4151.7949
4113.3333,4127.6923,4129.2308,4143.0769,4137.4359,4112.3077,4130.7692,4145.1282,4128.2051,4118.4615,4154.359,4148.7179
4113.3333,4129.7436,4128.2051,4145.641,4141.0256,4115.3846,4140.5128,4146.6667,4121.0256,4118.4615,4149.2308,4140.5128
4114.8718,4128.7179,4131.7949,4144.1026,4141.5385,4116.4103,4140,4145.1282,4119.4872,4120.5128,4140.5128,4140.5128
4108.2051,4123.0769,4129.7436,4136.4103,4140.5128,4116.4103,4134.8718,4138.9744,4118.9744,4117.9487,4137.9487,4137.9487
4103.0769,4123.5897,4123.0769,4134.8718,4145.1282,4114.8718,4128.7179,4129.7436,4111.2821,4113.3333,4136.4103,4129.2308
4110.7692,4127.6923,4126.6667,4144.1026,4145.1282,4113.3333,4126.1538,4127.1795,4112.3077,4118.9744,4136.9231,4134.359
4116.9231,4131.7949,4139.4872,4154.8718,4138.4615,4110.7692,4123.5897,4127.6923,4119.4872,4122.0513,4140.5128,4142.0513
4124.6154,4135.3846,4148.2051,4157.4359,4142.5641,4111.7949,4121.5385,4133.3333,4126.1538,4126.6667,4152.3077,4154.8718
4132.8205,4130.7692,4146.6667,4142.5641,4145.641,4105.641,4116.9231,4135.8974,4131.2821,4137.9487,4161.0256,4164.6154
4130.7692,4129.2308,4144.6154,4136.9231,4140.5128,4100,4118.4615,4130.7692,4130.2564,4139.4872,4157.4359,4160.5128
4129.2308,4130.7692,4149.2308,4145.641,4141.0256,4115.3846,4132.8205,4132.8205,4127.1795,4136.9231,4158.9744,4160
4129.2308,4132.8205,4149.2308,4140.5128,4145.641,4118.9744,4134.8718,4134.359,4122.0513,4133.3333,4155.8974,4157.4359
4126.1538,4133.8462,4148.7179,4141.5385,4143.5897,4108.7179,4131.2821,4133.8462,4121.0256,4132.3077,4149.2308,4153.8462
4121.5385,4131.7949,4147.1795,4147.6923,4135.8974,4110.7692,4136.4103,4131.2821,4120.5128,4129.7436,4146.1538,4151.7949
4118.9744,4127.1795,4139.4872,4135.8974,4138.9744,4114.359,4133.3333,4125.641,4113.3333,4122.5641,4143.0769,4146.6667
4114.8718,4119.4872,4132.8205,4126.1538,4145.641,4111.2821,4126.6667,4125.1282,4106.1538,4121.0256,4131.7949,4140
4109.2308,4123.0769,4134.359,4131.7949,4144.6154,4108.2051,4128.7179,4128.7179,4104.6154,4120,4123.0769,4133.3333
4111.7949,4132.3077,4140,4139.4872,4145.1282,4116.4103,4141.0256,4135.8974,4113.8462,4118.9744,4141.5385,4136.9231
4110.7692,4127.1795,4138.9744,4131.7949,4143.0769,4115.3846,4146.1538,4137.9487,4121.5385,4121.0256,4156.4103,4142.5641
4108.7179,4122.5641,4137.4359,4120,4141.0256,4106.6667,4140,4140.5128,4122.0513,4125.641,4152.8205,4144.6154
4114.8718,4128.2051,4141.5385,4124.1026,4147.6923,4121.0256,4147.1795,4146.6667,4131.2821,4131.2821,4164.1026,4151.2821
4111.7949,4128.7179,4134.8718,4126.1538,4145.1282,4127.6923,4146.1538,4138.4615,4131.7949,4123.5897,4168.2051,4146.1538
4110.2564,4125.1282,4130.7692,4127.1795,4136.4103,4112.8205,4131.2821,4130.7692,4123.5897,4117.9487,4157.4359,4142.0513
4121.5385,4127.1795,4138.4615,4135.8974,4138.4615,4107.6923,4129.2308,4134.8718,4124.1026,4124.1026,4161.5385,4151.2821
4120,4130.7692,4136.4103,4128.7179,4146.6667,4110.7692,4127.6923,4132.8205,4121.5385,4120.5128,4165.641,4147.1795
4111.7949,4125.641,4127.6923,4117.4359,4149.7436,4111.7949,4126.6667,4125.1282,4117.9487,4116.9231,4157.4359,4137.4359
4107.6923,4116.9231,4123.0769,4117.4359,4136.4103,4109.2308,4127.6923,4125.1282,4111.2821,4113.8462,4143.0769,4129.7436
4099.4872,4116.4103,4120.5128,4114.8718,4126.6667,4108.2051,4125.641,4130.7692,4102.0513,4106.6667,4130.2564,4116.9231
4096.9231,4121.5385,4121.5385,4113.3333,4139.4872,4114.8718,4127.6923,4133.8462,4105.1282,4107.6923,4138.9744,4116.9231
4096.9231,4123.0769,4120.5128,4116.9231,4149.2308,4121.0256,4124.6154,4129.7436,4104.6154,4111.2821,4141.0256,4120
4098.4615,4125.641,4120.5128,4127.1795,4140,4124.1026,4126.1538,4136.9231,4107.6923,4115.8974,4135.3846,4122.5641
4102.5641,4130.2564,4124.6154,4140,4132.3077,4117.4359,4132.3077,4141.0256,4116.9231,4118.4615,4145.1282,4130.2564
4104.1026,4129.2308,4126.1538,4138.4615,4146.1538,4112.8205,4128.2051,4135.3846,4114.359,4114.359,4150.7692,4130.7692
4105.1282,4122.5641,4124.1026,4127.1795,4152.3077,4114.359,4121.0256,4138.4615,4109.2308,4114.8718,4143.0769,4127.1795
4103.5897,4124.1026,4123.0769,4123.0769,4136.4103,4112.8205,4118.9744,4133.8462,4106.6667,4112.3077,4131.2821,4117.4359
4105.1282,4131.2821,4127.1795,4135.8974,4131.7949,4121.0256,4131.7949,4127.6923,4107.6923,4111.7949,4134.359,4114.8718
4106.1538,4130.2564,4125.1282,4134.359,4140.5128,4121.5385,4132.3077,4129.7436,4104.6154,4113.8462,4137.4359,4117.4359
4105.641,4126.6667,4123.5897,4118.9744,4140.5128,4106.1538,4115.3846,4127.6923,4097.4359,4113.8462,4130.2564,4115.8974
4109.2308,4126.6667,4128.2051,4122.5641,4136.4103,4111.2821,4122.0513,4121.5385,4103.0769,4116.4103,4135.8974,4121.5385
4108.7179,4126.6667,4127.1795,4129.2308,4136.9231,4119.4872,4132.3077,4121.0256,4109.7436,4115.3846,4137.9487,4121.0256
4109.2308,4130.2564,4127.1795,4127.6923,4143.5897,4109.7436,4123.0769,4124.6154,4110.2564,4113.8462,4129.7436,4117.4359
4116.9231,4132.8205,4134.359,4127.6923,4144.6154,4101.5385,4113.8462,4124.1026,4108.7179,4119.4872,4127.1795,4121.0256
4122.0513,4132.3077,4139.4872,4129.7436,4132.8205,4105.641,4117.4359,4122.0513,4108.7179,4122.0513,4134.8718,4124.6154
4109.2308,4123.0769,4126.6667,4121.5385,4125.1282,4109.7436,4123.0769,4120,4104.1026,4111.7949,4129.2308,4119.4872
4089.7436,4117.9487,4109.7436,4100,4130.2564,4103.5897,4117.4359,4115.8974,4089.7436,4098.9744,4105.641,4104.6154
4102.0513,4128.7179,4120.5128,4098.9744,4136.4103,4104.6154,4119.4872,4120,4090.2564,4106.6667,4111.7949,4109.7436
4123.5897,4134.8718,4134.359,4116.9231,4138.4615,4114.8718,4128.7179,4123.0769,4101.5385,4117.9487,4131.7949,4125.641
4113.3333,4127.6923,4123.0769,4114.8718,4141.5385,4117.9487,4126.1538,4115.8974,4098.9744,4110.7692,4121.5385,4117.4359
4105.1282,4125.641,4120,4110.7692,4142.5641,4118.9744,4122.5641,4121.5385,4101.5385,4109.7436,4118.9744,4113.8462
4113.8462,4130.2564,4127.1795,4118.9744,4136.9231,4115.3846,4121.5385,4131.7949,4104.6154,4110.7692,4129.7436,4122.0513
4109.2308,4125.641,4120.5128,4110.7692,4139.4872,4112.8205,4126.6667,4130.2564,4093.3333,4106.6667,4117.4359,4117.4359
4102.5641,4120,4116.9231,4096.4103,4141.0256,4115.8974,4131.2821,4129.2308,4093.3333,4109.2308,4111.2821,4117.4359
4106.1538,4124.1026,4122.5641,4104.6154,4134.359,4116.9231,4122.5641,4128.2051,4101.0256,4107.6923,4116.9231,4124.1026
4105.641,4122.0513,4120,4109.7436,4134.359,4120.5128,4120,4126.6667,4097.4359,4102.5641,4108.7179,4118.9744
4107.1795,4118.4615,4116.4103,4098.9744,4134.359,4120.5128,4116.4103,4123.0769,4092.8205,4100.5128,4104.1026,4111.2821
4122.0513,4129.2308,4128.7179,4109.2308,4136.4103,4122.0513,4113.3333,4125.641,4105.641,4109.7436,4123.0769,4128.7179
4127.6923,4135.3846,4135.8974,4125.641,4141.5385,4129.2308,4120,4129.7436,4112.3077,4118.4615,4127.6923,4142.0513
4122.0513,4129.7436,4130.2564,4113.8462,4140.5128,4127.6923,4122.0513,4127.6923,4104.6154,4115.3846,4114.359,4131.7949
4133.8462,4128.2051,4137.9487,4109.2308,4138.9744,4128.2051,4122.5641,4130.7692,4115.8974,4121.0256,4131.7949,4145.641
4138.9744,4131.2821,4142.5641,4116.9231,4138.9744,4131.2821,4123.0769,4131.2821,4121.5385,4124.6154,4145.1282,4161.5385
4131.2821,4134.8718,4136.4103,4115.8974,4143.0769,4132.3077,4127.1795,4136.9231,4113.8462,4122.5641,4133.3333,4156.4103
4134.359,4131.7949,4137.9487,4113.3333,4144.1026,4134.359,4130.2564,4141.5385,4122.5641,4122.5641,4137.9487,4159.4872
4136.9231,4124.1026,4140.5128,4108.7179,4143.5897,4130.2564,4122.5641,4131.7949,4129.7436,4119.4872,4144.6154,4161.0256
4138.4615,4123.5897,4140.5128,4112.8205,4146.6667,4132.3077,4124.6154,4128.2051,4125.1282,4123.5897,4146.1538,4162.0513
4135.3846,4126.1538,4133.8462,4113.3333,4144.1026,4135.8974,4125.1282,4126.6667,4116.4103,4121.5385,4140.5128,4158.4615
4128.7179,4129.7436,4131.7949,4103.5897,4144.1026,4137.4359,4120.5128,4127.6923,4115.8974,4113.3333,4130.2564,4148.2051
4131.7949,4129.7436,4135.8974,4107.1795,4144.6154,4145.1282,4132.8205,4135.8974,4120,4115.8974,4124.6154,4143.5897
4135.8974,4126.1538,4134.8718,4111.7949,4138.4615,4143.0769,4138.4615,4134.359,4118.4615,4116.9231,4124.1026,4138.4615
4142.0513,4126.1538,4134.359,4106.6667,4141.0256,4141.5385,4137.4359,4133.8462,4129.7436,4118.4615,4147.1795,4150.7692
4140,4124.6154,4134.8718,4094.8718,4142.5641,4149.7436,4145.641,4138.4615,4135.8974,4117.9487,4153.3333,4159.4872
4130.7692,4123.5897,4135.8974,4091.7949,4137.4359,4156.4103,4155.8974,4139.4872,4125.1282,4111.2821,4134.359,4146.1538
4132.3077,4123.5897,4134.359,4101.0256,4141.5385,4150.7692,4151.7949,4136.9231,4127.6923,4113.8462,4136.9231,4144.6154
4132.8205,4122.0513,4127.1795,4096.4103,4143.0769,4143.0769,4136.9231,4132.3077,4125.641,4111.2821,4134.8718,4139.4872
4135.3846,4122.5641,4130.2564,4092.3077,4133.8462,4152.3077,4144.1026,4133.3333,4120.5128,4106.6667,4121.5385,4129.2308
4140,4125.1282,4141.5385,4099.4872,4135.8974,4155.3846,4150.2564,4136.4103,4129.2308,4110.7692,4128.2051,4136.4103
4138.4615,4126.6667,4142.0513,4101.5385,4148.7179,4146.6667,4136.4103,4137.4359,4130.7692,4112.3077,4135.8974,4142.0513
4134.359,4124.6154,4136.4103,4102.5641,4148.2051,4147.6923,4135.8974,4137.4359,4122.0513,4109.7436,4128.7179,4135.3846
4129.2308,4124.1026,4135.8974,4107.6923,4138.4615,4149.7436,4143.0769,4132.8205,4124.6154,4108.7179,4124.1026,4129.2308
4130.7692,4127.6923,4140.5128,4113.8462,4146.1538,4154.359,4150.7692,4140.5128,4141.5385,4118.4615,4138.4615,4136.9231
4133.3333,4124.1026,4141.5385,4110.2564,4147.1795,4153.8462,4156.9231,4148.2051,4140,4122.5641,4141.5385,4143.0769
4131.2821,4121.5385,4138.4615,4098.9744,4135.3846,4145.641,4152.3077,4137.9487,4125.1282,4114.359,4128.2051,4142.5641
4130.7692,4122.5641,4138.4615,4105.1282,4143.5897,4148.7179,4150.2564,4137.4359,4130.7692,4116.4103,4132.3077,4147.1795
4123.0769,4123.5897,4132.8205,4115.3846,4154.8718,4152.3077,4146.1538,4140.5128,4135.8974,4118.4615,4133.8462,4135.8974
4120.5128,4125.641,4132.8205,4117.4359,4149.7436,4152.3077,4147.6923,4134.359,4133.8462,4119.4872,4134.8718,4134.8718
4133.3333,4127.1795,4141.5385,4116.4103,4138.4615,4154.359,4155.3846,4130.2564,4137.9487,4123.0769,4151.7949,4154.8718
4141.0256,4128.2051,4141.0256,4115.3846,4136.9231,4154.8718,4154.8718,4134.359,4137.9487,4115.8974,4153.3333,4152.8205
4133.8462,4126.6667,4136.4103,4116.9231,4143.5897,4155.8974,4153.3333,4139.4872,4130.2564,4110.7692,4142.5641,4142.0513
4120.5128,4126.1538,4133.3333,4109.2308,4144.6154,4149.7436,4144.6154,4134.359,4123.0769,4110.7692,4133.3333,4135.8974
4122.0513,4128.2051,4135.3846,4110.2564,4144.1026,4148.2051,4137.4359,4133.8462,4132.3077,4114.359,4140.5128,4133.3333
4132.8205,4129.2308,4137.9487,4124.1026,4140.5128,4153.3333,4139.4872,4135.3846,4148.2051,4123.5897,4154.359,4142.0513
4133.3333,4131.2821,4134.8718,4123.5897,4143.5897,4147.1795,4135.8974,4129.7436,4145.1282,4125.641,4157.4359,4147.6923
4132.3077,4131.2821,4132.3077,4117.4359,4150.2564,4142.5641,4133.3333,4130.2564,4138.9744,4119.4872,4150.2564,4141.0256
4124.6154,4123.5897,4126.1538,4115.3846,4143.5897,4142.5641,4133.8462,4128.7179,4134.8718,4106.1538,4117.4359,4118.9744
4115.3846,4116.9231,4118.9744,4112.3077,4141.0256,4144.1026,4138.4615,4126.1538,4118.9744,4097.9487,4100.5128,4104.1026
4115.3846,4116.4103,4118.9744,4108.7179,4141.5385,4144.6154,4141.5385,4131.7949,4118.9744,4101.5385,4111.7949,4104.1026
4114.359,4113.8462,4118.4615,4102.0513,4133.3333,4144.6154,4143.5897,4137.4359,4142.0513,4106.1538,4100,4105.641
4117.9487,4116.4103,4122.0513,4101.0256,4132.8205,4150.2564,4151.7949,4137.9487,4151.7949,4115.8974,4108.2051,4123.5897
4127.6923,4124.6154,4131.7949,4102.5641,4142.0513,4142.0513,4138.4615,4130.2564,4136.4103,4118.9744,4152.3077,4141.5385
4135.3846,4129.7436,4136.4103,4106.6667,4146.1538,4126.6667,4112.3077,4121.0256,4127.6923,4115.3846,4161.0256,4142.0513
4136.9231,4126.1538,4127.1795,4107.6923,4141.5385,4129.2308,4110.7692,4117.4359,4126.6667,4108.7179,4130.2564,4136.4103
4130.7692,4128.2051,4120.5128,4103.0769,4135.8974,4131.2821,4114.359,4118.9744,4117.9487,4096.4103,4116.9231,4128.7179
4139.4872,4132.3077,4128.2051,4106.1538,4132.8205,4121.5385,4109.2308,4124.1026,4135.8974,4101.5385,4127.1795,4142.0513
4158.4615,4129.7436,4132.8205,4107.6923,4131.2821,4112.3077,4102.0513,4117.9487,4158.4615,4115.3846,4130.7692,4167.1795
4170.2564,4129.7436,4138.4615,4098.4615,4135.8974,4112.8205,4106.1538,4115.8974,4181.5385,4123.0769,4123.5897,4174.8718
4178.4615,4132.8205,4148.2051,4096.9231,4137.4359,4115.3846,4120,4127.6923,4228.7179,4129.7436,4109.7436,4177.4359
4185.1282,4137.4359,4147.6923,4098.4615,4133.8462,4113.8462,4121.5385,4124.6154,4231.7949,4124.6154,4113.8462,4181.0256
4187.1795,4138.4615,4148.7179,4102.5641,4140,4122.5641,4126.1538,4120,4203.0769,4118.9744,4144.1026,4186.6667
4177.9487,4129.2308,4144.1026,4101.5385,4149.7436,4125.1282,4132.8205,4127.1795,4214.8718,4116.4103,4147.1795,4182.0513
4166.6667,4122.0513,4127.1795,4087.6923,4148.2051,4108.7179,4118.4615,4126.1538,4244.1026,4108.7179,4117.4359,4161.0256
4163.0769,4121.0256,4119.4872,4078.9744,4134.8718,4092.3077,4101.0256,4111.7949,4250.2564,4107.1795,4100.5128,4149.2308
4163.5897,4126.1538,4124.6154,4078.9744,4125.641,4079.4872,4085.1282,4101.0256,4253.3333,4107.6923,4103.0769,4146.1538
4166.1538,4126.1538,4129.2308,4080.5128,4133.8462,4077.9487,4076.9231,4105.1282,4262.5641,4106.1538,4111.2821,4146.6667
4158.4615,4114.8718,4122.5641,4062.0513,4136.4103,4082.5641,4076.4103,4108.2051,4242.5641,4102.0513,4117.4359,4145.641
4152.3077,4113.8462,4117.9487,4047.6923,4129.7436,4089.2308,4076.4103,4106.1538,4218.4615,4101.0256,4120,4147.1795
4163.0769,4122.0513,4124.6154,4074.8718,4134.8718,4106.1538,4083.5897,4112.3077,4225.1282,4107.1795,4115.3846,4160.5128
4171.2821,4126.1538,4133.8462,4103.5897,4141.0256,4116.4103,4090.7692,4117.4359,4238.9744,4107.6923,4075.3846,4164.6154
4180.5128,4131.7949,4143.0769,4113.3333,4145.641,4121.5385,4103.0769,4122.5641,4243.0769,4111.2821,4060,4172.8205
4188.7179,4134.8718,4146.1538,4116.9231,4149.2308,4121.0256,4105.1282,4123.5897,4246.6667,4119.4872,4094.359,4183.5897
4182.5641,4132.3077,4145.1282,4114.359,4148.2051,4115.3846,4094.359,4117.4359,4266.1538,4115.8974,4094.359,4173.3333
4180,4131.7949,4146.1538,4108.7179,4152.3077,4125.1282,4098.9744,4114.8718,4273.8462,4113.8462,4093.3333,4171.2821
4175.8974,4130.2564,4141.0256,4088.7179,4153.3333,4127.6923,4099.4872,4110.7692,4248.2051,4112.3077,4127.6923,4176.4103
4175.3846,4128.7179,4141.5385,4069.2308,4153.8462,4122.0513,4088.2051,4107.6923,4242.5641,4113.8462,4134.8718,4183.0769
4185.641,4131.7949,4144.1026,4068.7179,4153.8462,4121.0256,4081.5385,4107.6923,4246.1538,4115.3846,4110.2564,4189.2308
4181.5385,4132.3077,4136.9231,4064.6154,4149.2308,4112.3077,4077.4359,4108.7179,4229.2308,4108.2051,4111.7949,4181.0256
4170.7692,4127.6923,4132.8205,4056.9231,4145.641,4108.2051,4081.0256,4114.359,4221.5385,4109.7436,4127.1795,4175.8974
4167.1795,4124.6154,4129.2308,4051.2821,4139.4872,4109.2308,4081.0256,4105.1282,4227.1795,4109.7436,4111.2821,4175.3846
4168.7179,4129.2308,4129.2308,4053.8462,4140,4108.2051,4073.3333,4095.8974,4263.0769,4104.6154,4111.2821,4176.9231
4171.2821,4135.3846,4135.3846,4063.0769,4150.2564,4106.1538,4065.1282,4101.5385,4318.4615,4104.6154,4130.2564,4180.5128
4166.6667,4134.359,4133.3333,4068.7179,4151.7949,4104.1026,4055.8974,4098.4615,4328.7179,4097.4359,4114.8718,4166.6667
4166.1538,4129.7436,4128.2051,4073.8462,4145.641,4110.2564,4059.4872,4096.9231,4311.2821,4093.8462,4107.6923,4163.5897
4165.1282,4126.6667,4125.1282,4063.0769,4143.5897,4108.2051,4069.7436,4100,4306.1538,4090.2564,4120,4166.6667
4150.7692,4123.0769,4117.4359,4044.1026,4143.0769,4102.0513,4074.8718,4096.4103,4299.4872,4080,4106.6667,4152.8205
4143.5897,4118.9744,4109.7436,4042.0513,4134.8718,4096.9231,4060.5128,4088.7179,4294.359,4076.9231,4083.5897,4145.641
4151.2821,4123.0769,4110.2564,4050.2564,4135.8974,4083.5897,4030.2564,4086.1538,4297.4359,4078.4615,4085.1282,4151.2821
4152.8205,4129.2308,4115.8974,4062.0513,4142.5641,4083.5897,4039.4872,4095.8974,4295.3846,4081.0256,4110.2564,4157.4359
4138.4615,4125.1282,4110.7692,4058.9744,4132.8205,4091.7949,4059.4872,4093.8462,4280.5128,4077.4359,4114.8718,4145.1282
4130.7692,4121.5385,4101.0256,4045.1282,4127.1795,4085.1282,4039.4872,4081.0256,4270.2564,4072.3077,4097.9487,4127.1795
4135.3846,4126.1538,4103.5897,4044.6154,4137.9487,4086.1538,4030.2564,4092.3077,4277.9487,4076.9231,4102.5641,4130.7692
4148.7179,4136.9231,4123.0769,4064.6154,4148.2051,4113.8462,4064.6154,4119.4872,4293.3333,4090.7692,4116.9231,4152.3077
4184.6154,4147.1795,4158.4615,4100.5128,4159.4872,4142.0513,4106.6667,4136.4103,4305.1282,4118.9744,4146.6667,4191.2821
4204.1026,4145.641,4175.3846,4119.4872,4166.1538,4150.2564,4129.2308,4134.359,4301.5385,4128.7179,4177.9487,4208.7179
4196.4103,4143.5897,4166.1538,4116.9231,4167.1795,4154.359,4134.8718,4131.7949,4299.4872,4122.5641,4182.5641,4198.9744
4212.3077,4148.2051,4175.3846,4125.1282,4174.359,4161.5385,4135.8974,4142.5641,4312.8205,4138.4615,4187.6923,4216.4103
4230.7692,4152.3077,4194.359,4139.4872,4180.5128,4163.0769,4146.6667,4154.8718,4311.2821,4149.2308,4191.7949,4236.9231
4220,4149.2308,4190.7692,4146.1538,4177.4359,4166.1538,4165.1282,4162.5641,4298.9744,4141.0256,4197.9487,4230.7692
4210.2564,4142.0513,4179.4872,4141.5385,4173.3333,4164.6154,4164.6154,4155.3846,4298.4615,4135.8974,4210.2564,4221.5385
4211.7949,4141.5385,4177.9487,4136.4103,4173.3333,4161.5385,4157.4359,4146.6667,4300,4135.3846,4192.8205,4218.4615
4210.2564,4138.9744,4175.8974,4138.4615,4171.2821,4169.7436,4170.2564,4157.9487,4299.4872,4134.8718,4153.3333,4217.9487
4200,4133.8462,4167.1795,4138.9744,4168.2051,4167.6923,4169.7436,4164.6154,4294.359,4130.2564,4130.7692,4205.1282
4197.4359,4131.2821,4162.0513,4140,4170.7692,4161.5385,4156.9231,4158.9744,4286.6667,4127.1795,4137.4359,4194.8718
4197.4359,4132.3077,4158.4615,4139.4872,4168.7179,4167.6923,4158.4615,4156.4103,4280.5128,4128.2051,4141.5385,4200
4188.2051,4136.9231,4160,4130.7692,4167.6923,4174.359,4168.7179,4154.8718,4271.7949,4128.2051,4137.4359,4199.4872
4186.6667,4142.5641,4167.1795,4132.8205,4175.8974,4175.8974,4173.3333,4154.8718,4272.3077,4133.3333,4133.8462,4197.9487
4196.4103,4146.1538,4171.7949,4146.1538,4178.4615,4166.6667,4160,4157.9487,4283.5897,4139.4872,4125.1282,4205.1282
4199.4872,4143.5897,4172.8205,4150.7692,4176.9231,4169.7436,4166.6667,4165.1282,4287.6923,4137.4359,4129.7436,4211.2821
4191.2821,4140.5128,4171.2821,4149.2308,4178.4615,4182.5641,4185.641,4166.1538,4280,4129.7436,4138.4615,4204.6154
4189.2308,4143.0769,4173.3333,4150.7692,4180,4178.4615,4173.3333,4161.0256,4280.5128,4129.2308,4131.2821,4202.0513
4190.2564,4143.5897,4175.8974,4154.359,4180,4168.2051,4160,4161.0256,4289.2308,4136.4103,4118.9744,4208.7179
4177.4359,4134.359,4164.6154,4143.0769,4171.2821,4163.5897,4161.0256,4155.3846,4280.5128,4127.1795,4108.7179,4193.3333
4171.7949,4132.8205,4159.4872,4140.5128,4166.1538,4167.1795,4165.1282,4156.4103,4272.3077,4120.5128,4105.641,4186.6667
4176.9231,4134.359,4164.1026,4153.8462,4162.5641,4164.1026,4167.6923,4158.9744,4273.8462,4125.1282,4103.5897,4195.8974
4167.1795,4130.2564,4157.9487,4146.1538,4157.9487,4154.8718,4163.0769,4151.2821,4271.2821,4118.4615,4094.8718,4184.1026
4160,4131.7949,4153.3333,4136.9231,4160.5128,4166.1538,4169.2308,4152.8205,4271.7949,4114.8718,4092.8205,4173.8462
4163.0769,4130.7692,4155.8974,4143.0769,4162.5641,4174.359,4177.4359,4156.4103,4270.2564,4116.9231,4088.7179,4175.8974
4170.7692,4131.2821,4163.0769,4150.7692,4160.5128,4164.6154,4169.7436,4156.4103,4272.8205,4121.0256,4079.4872,4182.5641
4182.5641,4139.4872,4167.6923,4155.8974,4158.4615,4163.0769,4166.1538,4157.9487,4279.4872,4129.2308,4085.1282,4195.8974
4183.5897,4139.4872,4161.0256,4153.3333,4161.5385,4167.1795,4170.7692,4157.4359,4273.8462,4127.6923,4091.7949,4194.359
4180.5128,4131.2821,4159.4872,4149.2308,4165.641,4167.6923,4167.6923,4162.0513,4271.7949,4126.6667,4097.9487,4190.7692
4177.4359,4128.7179,4162.5641,4143.5897,4162.0513,4162.0513,4156.4103,4163.5897,4270.7692,4126.6667,4101.0256,4188.7179
4172.8205,4134.359,4156.9231,4144.6154,4161.5385,4158.4615,4157.4359,4158.9744,4260.5128,4123.5897,4097.9487,4178.9744
4170.7692,4132.3077,4152.8205,4150.2564,4161.0256,4162.5641,4167.6923,4157.4359,4261.5385,4123.5897,4093.3333,4177.4359
4167.6923,4128.7179,4157.4359,4150.2564,4156.4103,4164.1026,4161.5385,4158.9744,4265.1282,4120,4086.6667,4180
4166.6667,4131.2821,4156.9231,4149.2308,4157.9487,4165.641,4160.5128,4161.5385,4260.5128,4121.0256,4094.359,4176.9231
4158.9744,4129.2308,4144.6154,4140.5128,4154.359,4163.0769,4163.5897,4160,4258.4615,4119.4872,4093.8462,4165.1282
4148.2051,4124.6154,4141.0256,4134.8718,4150.2564,4158.9744,4165.641,4157.9487,4255.8974,4113.3333,4085.1282,4162.5641
4151.7949,4125.641,4150.2564,4141.5385,4156.9231,4163.5897,4172.8205,4159.4872,4252.8205,4118.9744,4095.3846,4172.8205
4161.0256,4133.8462,4153.3333,4148.2051,4161.5385,4165.641,4165.641,4156.9231,4251.7949,4124.6154,4095.8974,4171.2821
4164.6154,4136.9231,4152.3077,4152.3077,4158.9744,4165.1282,4157.4359,4153.3333,4252.3077,4123.0769,4089.7436,4169.2308
4157.9487,4129.2308,4148.2051,4145.641,4157.4359,4164.6154,4158.9744,4150.7692,4249.7436,4123.5897,4093.3333,4167.1795
4149.2308,4125.1282,4142.5641,4133.3333,4159.4872,4164.6154,4157.9487,4150.7692,4250.7692,4125.1282,4096.4103,4161.0256
4152.3077,4131.2821,4144.6154,4143.0769,4161.0256,4163.0769,4150.7692,4152.3077,4251.7949,4123.5897,4098.9744,4161.0256
4154.359,4133.3333,4146.1538,4152.8205,4158.4615,4152.3077,4142.0513,4149.2308,4246.6667,4117.9487,4096.4103,4155.3846
4149.2308,4129.2308,4143.5897,4148.2051,4158.9744,4152.8205,4146.1538,4152.3077,4242.0513,4117.9487,4096.4103,4149.7436
4144.1026,4131.2821,4142.0513,4145.641,4159.4872,4161.5385,4154.8718,4154.8718,4243.0769,4118.4615,4097.4359,4151.2821
4150.2564,4134.8718,4145.641,4149.7436,4158.4615,4166.1538,4162.0513,4153.8462,4244.1026,4117.9487,4103.0769,4156.4103
4158.4615,4130.2564,4151.7949,4147.1795,4154.359,4166.1538,4166.1538,4158.9744,4242.0513,4123.0769,4113.8462,4163.0769
4150.7692,4128.7179,4146.6667,4137.4359,4146.1538,4153.8462,4156.9231,4153.8462,4239.4872,4120,4105.641,4157.4359
4151.7949,4136.4103,4147.6923,4144.1026,4148.2051,4153.3333,4157.9487,4150.2564,4247.6923,4120,4106.1538,4160
4163.0769,4138.4615,4156.9231,4152.3077,4153.3333,4161.0256,4162.5641,4152.8205,4250.2564,4128.2051,4128.7179,4173.8462
4160,4135.3846,4152.3077,4143.5897,4152.8205,4154.359,4152.3077,4152.8205,4235.8974,4122.5641,4134.8718,4174.359
4156.9231,4133.8462,4146.1538,4143.0769,4149.7436,4150.2564,4150.2564,4149.2308,4232.8205,4116.9231,4130.2564,4171.7949
4156.4103,4130.7692,4147.6923,4141.0256,4143.5897,4150.2564,4147.1795,4145.1282,4237.9487,4120,4133.3333,4169.7436
4146.6667,4127.1795,4149.7436,4133.3333,4143.5897,4150.7692,4135.8974,4148.7179,4234.8718,4116.4103,4132.8205,4164.6154
4143.5897,4127.6923,4146.6667,4134.359,4144.6154,4152.8205,4135.3846,4148.7179,4229.7436,4110.7692,4123.5897,4159.4872
4145.1282,4135.3846,4142.5641,4141.0256,4149.2308,4160.5128,4148.2051,4146.1538,4224.6154,4112.3077,4119.4872,4150.7692
4142.0513,4136.4103,4147.1795,4142.5641,4153.8462,4168.7179,4154.8718,4151.7949,4228.2051,4120,4122.0513,4152.8205
4136.9231,4128.7179,4145.641,4135.3846,4147.6923,4167.6923,4139.4872,4149.2308,4228.2051,4114.359,4120.5128,4160.5128
4138.4615,4128.2051,4134.8718,4133.8462,4143.5897,4170.7692,4135.8974,4143.5897,4220.5128,4102.0513,4123.5897,4160
4146.6667,4134.359,4134.359,4141.0256,4147.1795,4180,4151.7949,4153.3333,4221.0256,4102.5641,4127.6923,4166.1538
4151.2821,4138.4615,4143.5897,4142.0513,4153.8462,4185.641,4154.359,4162.0513,4227.1795,4105.641,4130.7692,4178.9744
4158.9744,4136.4103,4148.7179,4146.1538,4156.4103,4194.8718,4153.8462,4156.9231,4230.2564,4109.7436,4142.0513,4189.7436
4160.5128,4132.3077,4145.1282,4146.6667,4154.359,4197.9487,4155.8974,4148.7179,4224.6154,4108.2051,4147.6923,4188.2051
4157.9487,4137.9487,4146.1538,4143.0769,4157.4359,4190.2564,4152.8205,4151.2821,4218.9744,4105.641,4160,4190.7692
4166.6667,4140.5128,4152.3077,4144.1026,4155.8974,4182.0513,4147.6923,4157.9487,4226.6667,4112.8205,4166.1538,4205.1282
4168.2051,4128.7179,4148.2051,4143.5897,4150.2564,4181.5385,4144.1026,4158.4615,4232.3077,4111.7949,4148.7179,4201.0256
4163.5897,4122.5641,4145.641,4144.1026,4156.4103,4190.7692,4153.8462,4160.5128,4230.2564,4109.7436,4155.8974,4197.9487
4165.1282,4126.1538,4149.7436,4147.1795,4164.6154,4195.3846,4165.641,4161.0256,4227.1795,4111.7949,4180,4205.1282
4166.6667,4130.2564,4152.8205,4154.359,4163.5897,4194.359,4167.6923,4162.0513,4222.0513,4111.2821,4174.359,4203.5897
4158.9744,4126.6667,4150.2564,4153.8462,4156.9231,4194.8718,4170.2564,4163.0769,4220,4110.7692,4159.4872,4194.359
4145.641,4119.4872,4142.0513,4141.0256,4149.2308,4193.3333,4170.7692,4158.9744,4218.9744,4105.641,4149.7436,4183.0769
4152.8205,4123.5897,4146.6667,4143.5897,4150.2564,4191.7949,4166.6667,4163.0769,4217.9487,4106.1538,4154.359,4188.2051
4166.1538,4129.7436,4157.9487,4152.8205,4154.8718,4185.641,4155.3846,4161.0256,4217.9487,4112.8205,4158.9744,4195.3846
4166.6667,4127.1795,4156.9231,4150.7692,4154.8718,4179.4872,4149.7436,4149.7436,4220,4115.8974,4147.6923,4196.4103
4167.1795,4129.2308,4152.3077,4152.3077,4157.4359,4177.9487,4153.3333,4154.359,4222.0513,4119.4872,4157.9487,4204.6154
4164.6154,4138.4615,4152.3077,4152.3077,4161.0256,4174.8718,4148.2051,4162.5641,4212.3077,4118.4615,4176.9231,4198.9744
4164.6154,4136.4103,4156.9231,4145.1282,4160.5128,4179.4872,4148.7179,4160,4209.7436,4119.4872,4169.2308,4190.2564
4162.0513,4134.359,4156.4103,4143.5897,4155.3846,4180.5128,4155.3846,4156.4103,4213.3333,4122.5641,4152.3077,4187.1795
4152.3077,4137.4359,4151.2821,4144.1026,4155.3846,4171.7949,4155.3846,4159.4872,4205.641,4118.4615,4152.8205,4179.4872
4151.2821,4130.7692,4150.7692,4135.8974,4160,4173.8462,4157.4359,4161.5385,4203.5897,4117.4359,4157.9487,4174.359
4154.359,4131.7949,4149.7436,4130.2564,4159.4872,4177.4359,4154.359,4156.9231,4204.6154,4116.9231,4151.2821,4170.7692
4153.3333,4140.5128,4144.6154,4131.7949,4155.3846,4171.7949,4151.7949,4158.4615,4199.4872,4115.3846,4141.5385,4166.1538
4146.6667,4135.3846,4141.5385,4126.1538,4154.359,4170.2564,4155.8974,4161.5385,4201.0256,4115.8974,4128.7179,4160.5128
4140.5128,4133.8462,4146.6667,4127.1795,4157.4359,4174.8718,4157.4359,4162.0513,4205.1282,4115.3846,4142.0513,4163.0769
4145.641,4141.0256,4150.7692,4142.5641,4155.3846,4178.4615,4157.9487,4162.0513,4202.0513,4117.9487,4174.359,4174.359
4148.7179,4138.4615,4144.6154,4147.6923,4152.8205,4173.3333,4154.359,4155.3846,4200.5128,4118.9744,4157.9487,4170.7692
4147.1795,4134.8718,4144.1026,4143.5897,4160,4170.7692,4150.2564,4153.3333,4204.1026,4121.5385,4129.7436,4164.6154
4151.2821,4137.4359,4149.7436,4143.5897,4158.9744,4173.3333,4147.6923,4158.4615,4201.5385,4125.1282,4155.8974,4172.8205
4154.359,4135.3846,4149.7436,4142.5641,4153.8462,4169.7436,4145.641,4157.4359,4198.4615,4121.5385,4175.8974,4177.9487
4150.2564,4132.8205,4147.1795,4140,4157.4359,4164.1026,4145.641,4153.3333,4203.0769,4119.4872,4155.8974,4173.3333
4141.0256,4134.359,4146.6667,4137.4359,4158.4615,4162.0513,4145.1282,4157.4359,4196.9231,4120.5128,4149.2308,4166.1538
4143.0769,4135.8974,4149.7436,4141.0256,4159.4872,4167.6923,4150.2564,4164.1026,4191.2821,4122.5641,4161.0256,4168.2051
4148.2051,4134.359,4149.7436,4144.6154,4164.6154,4173.8462,4157.9487,4161.0256,4201.5385,4123.0769,4158.9744,4174.359
4141.0256,4131.7949,4144.1026,4138.4615,4163.0769,4169.7436,4157.4359,4158.4615,4207.1795,4117.9487,4150.2564,4171.2821
4140.5128,4132.3077,4146.1538,4140,4160,4166.6667,4158.9744,4163.0769,4201.0256,4119.4872,4152.8205,4172.3077
4143.0769,4135.3846,4147.6923,4147.6923,4163.0769,4168.2051,4156.4103,4158.4615,4193.8462,4121.0256,4158.9744,4172.3077
4141.5385,4137.9487,4143.5897,4145.1282,4165.641,4162.5641,4149.7436,4150.2564,4193.8462,4120,4167.6923,4171.7949
4148.7179,4135.8974,4148.7179,4140.5128,4163.5897,4151.2821,4146.1538,4152.8205,4203.0769,4124.6154,4165.1282,4178.4615
4156.4103,4139.4872,4155.3846,4146.6667,4166.6667,4149.7436,4143.0769,4161.5385,4204.6154,4124.1026,4163.5897,4179.4872
4152.3077,4142.5641,4152.3077,4153.3333,4170.2564,4165.1282,4153.8462,4166.6667,4200,4122.5641,4172.8205,4175.3846
4134.359,4131.7949,4142.0513,4138.9744,4158.4615,4165.641,4164.6154,4160.5128,4193.8462,4114.8718,4155.8974,4160.5128
4126.1538,4130.2564,4135.3846,4128.7179,4155.3846,4154.8718,4152.8205,4155.8974,4188.7179,4103.0769,4150.7692,4148.2051
4144.1026,4142.5641,4146.6667,4142.0513,4167.6923,4158.4615,4145.641,4159.4872,4189.7436,4112.3077,4184.1026,4162.0513
4151.7949,4145.1282,4157.4359,4148.7179,4167.1795,4163.5897,4152.3077,4158.4615,4190.7692,4123.0769,4191.2821,4171.7949
4137.4359,4138.9744,4151.7949,4145.1282,4156.4103,4161.5385,4155.3846,4155.8974,4192.8205,4118.4615,4167.1795,4163.0769
4131.7949,4138.4615,4143.5897,4143.5897,4151.7949,4158.9744,4149.2308,4158.4615,4194.359,4113.3333,4157.4359,4159.4872
4136.9231,4140,4143.5897,4140,4154.359,4166.1538,4157.4359,4164.1026,4187.1795,4110.2564,4163.5897,4161.5385
4138.4615,4138.4615,4144.1026,4141.5385,4161.5385,4174.8718,4174.8718,4170.2564,4185.641,4113.3333,4165.641,4161.5385
4137.9487,4135.3846,4141.5385,4142.5641,4164.1026,4166.6667,4162.0513,4167.1795,4190.2564,4114.359,4160,4162.0513
4140.5128,4132.3077,4146.6667,4133.8462,4159.4872,4153.3333,4142.5641,4160.5128,4187.6923,4112.8205,4161.5385,4164.6154
4139.4872,4134.8718,4147.1795,4135.8974,4160.5128,4152.8205,4147.6923,4162.5641,4186.1538,4114.8718,4166.6667,4162.0513
4141.5385,4139.4872,4144.6154,4147.6923,4166.6667,4161.0256,4156.4103,4167.6923,4194.359,4117.9487,4166.1538,4162.5641
4149.7436,4138.4615,4151.2821,4149.7436,4168.2051,4162.0513,4158.9744,4164.6154,4197.4359,4118.9744,4177.4359,4171.2821
4144.1026,4134.8718,4152.3077,4141.0256,4164.6154,4156.9231,4157.4359,4160,4193.3333,4112.3077,4168.2051,4164.1026
4132.8205,4134.359,4144.1026,4134.8718,4160.5128,4155.8974,4156.4103,4166.1538,4194.359,4107.1795,4144.6154,4152.3077
4136.9231,4135.8974,4141.5385,4130.7692,4162.0513,4158.9744,4157.9487,4168.2051,4191.7949,4111.7949,4161.0256,4156.9231
4146.1538,4137.9487,4146.1538,4131.2821,4169.7436,4156.9231,4157.9487,4161.5385,4186.1538,4114.8718,4177.9487,4165.1282
4149.2308,4141.5385,4151.7949,4144.6154,4175.3846,4153.8462,4153.8462,4161.0256,4191.2821,4121.0256,4166.1538,4170.2564
4147.1795,4142.5641,4152.8205,4147.6923,4175.3846,4154.8718,4151.7949,4159.4872,4191.7949,4123.0769,4169.2308,4170.7692
4150.7692,4142.5641,4151.7949,4141.5385,4173.3333,4158.9744,4159.4872,4157.9487,4189.2308,4118.9744,4169.7436,4166.1538
4152.8205,4140.5128,4151.7949,4145.1282,4175.3846,4161.5385,4162.0513,4161.0256,4197.4359,4119.4872,4145.1282,4161.5385
4141.5385,4137.4359,4145.1282,4143.5897,4177.4359,4163.0769,4160,4162.0513,4192.8205,4116.4103,4143.0769,4156.4103
4140,4137.4359,4141.0256,4138.9744,4171.7949,4168.7179,4169.2308,4163.0769,4183.0769,4115.8974,4161.0256,4154.8718
4147.1795,4137.9487,4148.7179,4142.0513,4163.0769,4170.7692,4173.8462,4163.5897,4183.5897,4119.4872,4157.4359,4155.3846
4141.0256,4135.3846,4152.3077,4134.8718,4167.6923,4173.8462,4170.2564,4161.5385,4180.5128,4120.5128,4147.1795,4148.7179
4139.4872,4132.8205,4149.2308,4126.6667,4177.4359,4181.0256,4173.3333,4160,4176.9231,4120.5128,4144.1026,4144.1026
4153.3333,4138.4615,4151.7949,4137.9487,4178.4615,4180.5128,4169.2308,4161.5385,4179.4872,4123.0769,4144.6154,4150.2564
4165.1282,4142.5641,4160.5128,4152.3077,4178.9744,4181.5385,4163.5897,4166.6667,4188.7179,4135.3846,4152.8205,4165.1282
4159.4872,4137.4359,4159.4872,4141.5385,4178.4615,4188.2051,4166.1538,4167.1795,4191.2821,4137.9487,4150.2564,4167.1795
4154.8718,4136.9231,4159.4872,4133.8462,4172.8205,4188.7179,4167.1795,4163.0769,4186.1538,4129.7436,4135.3846,4161.5385
4161.0256,4141.0256,4165.1282,4148.2051,4167.6923,4183.0769,4163.0769,4162.5641,4181.0256,4129.2308,4143.5897,4168.7179
4154.359,4134.359,4154.359,4143.0769,4162.5641,4176.4103,4156.9231,4160.5128,4174.359,4126.6667,4150.7692,4166.6667
4140,4126.6667,4137.4359,4123.5897,4159.4872,4182.0513,4160.5128,4160.5128,4174.359,4122.0513,4128.7179,4153.8462
4139.4872,4131.7949,4139.4872,4122.5641,4155.3846,4191.7949,4167.1795,4163.0769,4177.4359,4121.0256,4113.3333,4154.359
4146.1538,4139.4872,4150.2564,4131.2821,4155.8974,4185.1282,4160,4161.0256,4176.9231,4123.0769,4131.7949,4167.6923
4147.1795,4135.8974,4148.7179,4128.7179,4162.5641,4179.4872,4153.3333,4155.8974,4173.8462,4123.5897,4144.6154,4173.8462
4145.1282,4134.8718,4143.5897,4125.641,4162.5641,4185.641,4160,4157.4359,4172.8205,4120,4123.0769,4169.7436
4151.7949,4141.5385,4149.2308,4134.359,4162.0513,4186.6667,4164.6154,4162.5641,4179.4872,4124.1026,4119.4872,4173.8462
4152.8205,4139.4872,4149.7436,4131.2821,4167.1795,4179.4872,4156.9231,4159.4872,4177.4359,4126.1538,4142.0513,4175.8974
4146.6667,4136.4103,4143.0769,4125.1282,4167.6923,4176.4103,4150.7692,4153.8462,4169.7436,4117.9487,4143.0769,4169.7436
4152.8205,4136.9231,4148.7179,4126.1538,4162.0513,4178.4615,4153.8462,4156.9231,4176.9231,4119.4872,4127.1795,4173.3333
4153.3333,4129.7436,4148.7179,4114.8718,4165.1282,4180.5128,4160,4160.5128,4176.4103,4121.5385,4122.5641,4173.8462
4144.1026,4128.2051,4140.5128,4110.7692,4172.8205,4184.6154,4163.5897,4157.4359,4167.6923,4115.8974,4129.2308,4166.1538
4142.0513,4136.9231,4142.0513,4124.1026,4167.6923,4184.1026,4156.9231,4152.8205,4169.7436,4114.359,4130.2564,4162.5641
4144.1026,4138.4615,4142.5641,4126.1538,4165.641,4178.9744,4150.2564,4153.3333,4169.2308,4112.3077,4117.4359,4158.4615
4142.5641,4133.8462,4137.4359,4117.9487,4174.8718,4183.5897,4161.5385,4154.359,4163.5897,4113.8462,4114.359,4155.8974
4139.4872,4135.8974,4136.4103,4116.4103,4176.4103,4188.7179,4165.641,4148.7179,4162.5641,4115.3846,4117.4359,4153.8462
4147.1795,4140.5128,4144.6154,4125.641,4175.3846,4185.1282,4160,4152.3077,4165.641,4117.9487,4119.4872,4157.9487
4152.8205,4139.4872,4148.7179,4131.2821,4177.4359,4177.9487,4161.5385,4165.1282,4166.6667,4122.0513,4128.7179,4168.2051
4142.0513,4136.4103,4139.4872,4121.5385,4174.359,4173.8462,4164.1026,4162.0513,4167.6923,4119.4872,4125.641,4164.6154
4140,4138.4615,4136.9231,4117.9487,4175.3846,4181.5385,4165.641,4153.3333,4169.2308,4119.4872,4117.9487,4161.5385
4140.5128,4138.9744,4141.5385,4122.0513,4181.0256,4181.5385,4165.641,4153.8462,4162.5641,4116.9231,4130.2564,4162.0513
4135.8974,4135.8974,4140.5128,4123.5897,4176.9231,4170.2564,4163.0769,4154.8718,4161.5385,4115.3846,4133.3333,4161.0256
4140.5128,4137.9487,4134.359,4129.2308,4166.1538,4162.0513,4155.3846,4148.2051,4168.7179,4115.8974,4104.6154,4160
4138.9744,4134.8718,4128.7179,4128.7179,4162.5641,4156.4103,4142.0513,4141.0256,4160,4108.7179,4092.8205,4152.8205
4129.2308,4130.7692,4126.1538,4114.8718,4169.7436,4152.3077,4133.8462,4138.9744,4150.7692,4106.1538,4105.1282,4146.6667
4131.2821,4130.2564,4127.1795,4107.1795,4170.7692,4146.1538,4132.3077,4140,4157.9487,4107.1795,4096.4103,4148.7179
4137.4359,4129.2308,4128.7179,4111.2821,4163.5897,4145.1282,4133.8462,4143.5897,4156.4103,4103.0769,4094.8718,4150.2564
4126.1538,4130.2564,4119.4872,4112.3077,4160.5128,4148.7179,4133.8462,4144.6154,4145.641,4100.5128,4101.0256,4143.5897
4114.8718,4130.7692,4113.8462,4107.1795,4164.1026,4146.6667,4136.4103,4145.641,4151.2821,4100,4076.9231,4132.8205
4118.4615,4125.641,4122.0513,4104.6154,4165.1282,4148.2051,4138.4615,4145.1282,4154.359,4101.5385,4074.8718,4134.359
4114.8718,4121.5385,4119.4872,4099.4872,4159.4872,4145.641,4126.6667,4135.8974,4134.359,4098.9744,4100.5128,4134.359
4109.7436,4126.1538,4111.7949,4096.9231,4157.9487,4136.9231,4123.0769,4131.2821,4128.7179,4096.9231,4094.359,4127.6923
4113.3333,4131.7949,4116.4103,4102.0513,4163.5897,4137.4359,4134.359,4132.8205,4145.641,4101.5385,4069.2308,4128.7179
4114.359,4133.8462,4118.4615,4104.6154,4165.641,4141.0256,4129.2308,4135.3846,4145.1282,4100.5128,4060,4130.7692
4114.8718,4134.8718,4116.4103,4106.6667,4164.1026,4144.1026,4124.6154,4143.5897,4136.4103,4098.4615,4064.6154,4131.7949
4111.7949,4131.2821,4113.3333,4104.1026,4159.4872,4140,4128.7179,4139.4872,4133.3333,4094.8718,4073.3333,4124.6154
4111.2821,4131.7949,4114.8718,4107.6923,4160.5128,4134.8718,4123.5897,4129.7436,4128.7179,4090.7692,4084.1026,4125.1282
4122.5641,4136.9231,4124.6154,4121.0256,4166.1538,4137.9487,4122.5641,4134.8718,4135.8974,4101.5385,4083.5897,4140
4118.4615,4133.3333,4118.4615,4117.9487,4162.0513,4135.8974,4122.0513,4132.8205,4139.4872,4101.0256,4068.2051,4128.7179
4106.6667,4127.1795,4106.6667,4109.2308,4156.4103,4132.8205,4122.0513,4127.6923,4135.3846,4093.3333,4065.641,4114.359
4113.8462,4132.8205,4112.3077,4114.8718,4160.5128,4136.4103,4132.3077,4138.4615,4136.9231,4098.9744,4077.4359,4122.5641
4119.4872,4136.9231,4118.4615,4117.9487,4163.5897,4134.359,4135.8974,4143.5897,4132.3077,4099.4872,4083.5897,4125.1282
4115.3846,4130.2564,4113.3333,4114.359,4162.0513,4124.6154,4124.6154,4137.4359,4127.1795,4093.3333,4075.3846,4117.9487
4108.2051,4126.6667,4106.6667,4110.2564,4163.0769,4123.5897,4114.359,4134.8718,4130.7692,4089.7436,4050.7692,4108.7179
4108.7179,4130.7692,4110.7692,4108.2051,4161.0256,4131.2821,4124.6154,4134.359,4127.1795,4089.2308,4055.3846,4105.1282
4117.9487,4135.3846,4115.8974,4109.2308,4158.4615,4128.7179,4132.3077,4130.2564,4116.9231,4089.7436,4084.1026,4108.7179
4115.3846,4134.8718,4106.6667,4105.1282,4162.5641,4117.9487,4117.4359,4130.2564,4116.9231,4087.1795,4069.7436,4104.6154
4105.641,4129.2308,4101.5385,4100.5128,4166.6667,4122.5641,4113.8462,4136.9231,4124.6154,4088.7179,4037.9487,4096.9231
4105.1282,4130.7692,4107.1795,4106.1538,4169.7436,4130.2564,4125.1282,4138.9744,4120,4091.7949,4048.7179,4101.0256
4111.2821,4138.9744,4112.8205,4114.359,4175.8974,4124.6154,4124.6154,4138.9744,4114.8718,4093.3333,4070.7692,4108.7179
4109.7436,4137.9487,4110.2564,4113.3333,4173.8462,4115.8974,4111.2821,4135.3846,4117.4359,4089.7436,4068.2051,4106.6667
4108.7179,4132.3077,4106.6667,4111.7949,4170.7692,4117.4359,4110.2564,4129.7436,4120.5128,4085.641,4053.8462,4103.5897
4112.8205,4132.8205,4106.6667,4110.7692,4171.7949,4122.5641,4124.1026,4131.7949,4122.0513,4089.7436,4047.6923,4105.641
4106.1538,4129.2308,4100,4101.0256,4165.641,4120,4125.641,4136.4103,4114.359,4085.641,4052.8205,4097.9487
4105.641,4128.2051,4100,4100.5128,4166.1538,4118.4615,4124.1026,4135.8974,4110.2564,4081.5385,4060,4096.4103
4110.2564,4128.7179,4104.6154,4104.1026,4168.2051,4116.4103,4127.1795,4133.3333,4112.8205,4081.0256,4057.9487,4099.4872
4095.8974,4124.1026,4097.4359,4097.4359,4162.5641,4111.2821,4123.0769,4132.3077,4111.2821,4073.8462,4041.5385,4086.6667
4084.6154,4125.641,4087.6923,4091.7949,4164.6154,4112.8205,4117.9487,4130.2564,4111.2821,4073.3333,4035.8974,4078.9744
4088.2051,4128.2051,4087.1795,4088.2051,4166.1538,4112.3077,4115.3846,4128.2051,4107.6923,4074.359,4048.7179,4079.4872
4093.3333,4125.641,4094.8718,4088.2051,4162.0513,4110.7692,4118.4615,4132.3077,4104.6154,4074.8718,4057.9487,4077.4359
4092.8205,4127.1795,4095.3846,4092.8205,4163.5897,4113.3333,4123.0769,4132.8205,4107.6923,4076.4103,4056.9231,4074.359
4086.6667,4129.7436,4091.2821,4092.8205,4167.1795,4114.8718,4123.5897,4132.8205,4109.2308,4075.8974,4051.2821,4073.8462
4091.7949,4129.2308,4096.4103,4094.359,4165.641,4121.0256,4123.5897,4142.0513,4110.7692,4083.5897,4057.4359,4087.1795
4101.0256,4130.2564,4102.0513,4096.4103,4160.5128,4125.1282,4124.6154,4146.1538,4112.8205,4087.6923,4054.8718,4094.359
4101.5385,4130.2564,4100,4092.8205,4158.4615,4123.0769,4130.7692,4142.5641,4115.3846,4085.641,4051.7949,4089.2308
4106.1538,4123.5897,4101.5385,4092.8205,4154.359,4123.5897,4136.4103,4145.1282,4114.8718,4092.3077,4069.2308,4100
4105.641,4120,4103.5897,4088.2051,4145.641,4127.1795,4130.2564,4140,4108.2051,4088.7179,4066.6667,4105.1282
4100.5128,4125.641,4102.0513,4083.0769,4144.1026,4135.3846,4127.6923,4135.3846,4108.2051,4083.5897,4051.7949,4095.3846
4103.0769,4129.2308,4098.9744,4084.1026,4150.2564,4142.0513,4133.8462,4138.4615,4110.7692,4090.2564,4055.8974,4097.4359
4104.6154,4126.6667,4095.3846,4082.5641,4150.2564,4140.5128,4136.9231,4139.4872,4109.7436,4089.7436,4056.9231,4100
4105.641,4125.1282,4101.0256,4084.1026,4146.6667,4133.8462,4137.4359,4143.5897,4116.4103,4090.2564,4061.5385,4103.5897
4110.7692,4135.3846,4107.6923,4089.2308,4152.8205,4127.6923,4135.3846,4147.1795,4120.5128,4095.3846,4073.8462,4115.8974
4109.7436,4144.1026,4104.1026,4090.7692,4157.9487,4131.7949,4132.8205,4143.5897,4113.3333,4087.6923,4069.2308,4115.8974
4097.4359,4131.2821,4095.3846,4084.1026,4150.2564,4136.4103,4130.7692,4134.8718,4105.1282,4074.359,4057.9487,4102.5641
4097.4359,4125.641,4098.9744,4083.0769,4142.0513,4133.8462,4125.1282,4128.7179,4106.6667,4077.9487,4056.4103,4105.1282
4113.3333,4136.9231,4107.1795,4089.7436,4145.1282,4131.7949,4122.0513,4128.7179,4113.3333,4086.6667,4053.3333,4117.9487
4110.2564,4134.359,4100,4083.5897,4144.6154,4133.3333,4123.5897,4131.2821,4107.1795,4076.9231,4057.4359,4107.1795
4094.8718,4122.5641,4092.3077,4076.4103,4134.8718,4135.3846,4128.7179,4135.3846,4105.1282,4070.2564,4070.7692,4097.4359
4090.7692,4124.1026,4090.2564,4076.9231,4133.3333,4134.359,4128.2051,4133.3333,4112.8205,4074.8718,4063.5897,4101.0256
4092.8205,4128.7179,4087.1795,4074.359,4143.0769,4133.3333,4125.1282,4133.3333,4106.1538,4073.3333,4058.4615,4100
4092.3077,4123.0769,4087.1795,4070.7692,4141.0256,4138.4615,4132.3077,4137.9487,4101.0256,4070.7692,4068.7179,4096.9231
4086.6667,4122.5641,4084.1026,4071.2821,4131.7949,4134.8718,4137.4359,4138.4615,4106.6667,4068.2051,4062.5641,4094.8718
4091.2821,4127.6923,4086.1538,4075.3846,4136.4103,4126.1538,4132.3077,4132.8205,4101.5385,4065.1282,4065.1282,4102.5641
4103.0769,4130.7692,4096.9231,4081.5385,4142.0513,4129.2308,4125.1282,4126.1538,4098.4615,4069.2308,4081.0256,4111.2821
4106.6667,4130.7692,4102.0513,4086.1538,4136.4103,4129.2308,4116.9231,4123.5897,4105.641,4071.7949,4087.1795,4110.2564
4102.5641,4125.1282,4100.5128,4082.0513,4131.7949,4121.5385,4112.3077,4127.1795,4107.6923,4073.8462,4088.7179,4111.2821
4093.8462,4121.0256,4096.9231,4074.359,4133.8462,4120.5128,4116.4103,4130.7692,4103.0769,4068.2051,4081.5385,4102.0513
4099.4872,4125.641,4098.9744,4080.5128,4136.4103,4127.1795,4127.1795,4133.3333,4108.7179,4067.6923,4078.4615,4094.8718
4111.2821,4127.1795,4102.5641,4088.7179,4135.8974,4125.1282,4130.2564,4132.8205,4116.4103,4075.3846,4084.6154,4104.6154
4098.4615,4121.5385,4093.8462,4082.0513,4132.3077,4122.0513,4124.1026,4129.7436,4109.2308,4070.2564,4087.6923,4103.0769
4091.2821,4126.6667,4088.7179,4078.4615,4133.3333,4129.7436,4128.7179,4134.8718,4105.1282,4067.1795,4099.4872,4098.4615
4105.641,4131.7949,4096.4103,4085.1282,4132.8205,4130.2564,4132.8205,4141.5385,4109.7436,4071.2821,4107.6923,4106.6667
4112.3077,4125.1282,4101.0256,4086.6667,4129.7436,4128.7179,4127.1795,4136.4103,4112.8205,4071.7949,4106.1538,4112.8205
4108.2051,4127.6923,4100,4086.6667,4129.7436,4131.7949,4124.6154,4131.7949,4112.8205,4072.8205,4114.8718,4115.3846
4111.7949,4135.3846,4100.5128,4089.2308,4133.3333,4132.8205,4128.7179,4132.3077,4107.6923,4074.359,4121.0256,4118.4615
4117.4359,4131.2821,4101.0256,4090.2564,4136.9231,4135.3846,4133.3333,4132.3077,4106.6667,4073.8462,4101.0256,4117.4359
4105.1282,4122.5641,4094.8718,4083.5897,4132.3077,4136.4103,4129.7436,4127.6923,4104.6154,4064.1026,4082.5641,4105.641
4098.9744,4126.6667,4094.8718,4082.0513,4129.2308,4136.4103,4123.0769,4125.1282,4101.0256,4058.9744,4097.9487,4101.0256
4112.8205,4130.7692,4102.5641,4092.8205,4133.3333,4134.8718,4116.9231,4124.6154,4098.9744,4069.7436,4118.4615,4109.2308
4114.359,4124.1026,4099.4872,4092.8205,4131.7949,4125.1282,4113.3333,4124.6154,4095.8974,4071.2821,4111.2821,4105.641
4105.641,4128.7179,4096.4103,4090.2564,4128.7179,4127.1795,4127.1795,4134.8718,4102.5641,4067.6923,4109.2308,4103.0769
4109.7436,4132.8205,4103.0769,4096.9231,4131.7949,4140.5128,4143.0769,4140,4111.2821,4070.2564,4127.6923,4113.3333
4112.8205,4127.1795,4104.1026,4099.4872,4135.3846,4141.5385,4139.4872,4134.8718,4106.6667,4069.7436,4130.2564,4112.8205
4105.641,4129.7436,4101.0256,4098.4615,4134.359,4139.4872,4135.3846,4132.3077,4103.0769,4067.1795,4113.3333,4103.0769
4105.1282,4134.359,4102.5641,4101.5385,4134.359,4147.1795,4141.0256,4132.8205,4105.1282,4068.7179,4107.1795,4103.5897
4113.3333,4133.8462,4105.641,4110.7692,4136.9231,4153.3333,4147.1795,4135.3846,4106.1538,4072.8205,4122.5641,4110.2564
4106.1538,4130.7692,4100.5128,4106.6667,4135.3846,4149.7436,4144.6154,4133.8462,4109.2308,4073.3333,4117.9487,4105.1282
4098.4615,4128.7179,4095.3846,4097.9487,4134.359,4144.6154,4132.8205,4131.2821,4110.2564,4071.2821,4103.0769,4102.5641
4107.1795,4129.7436,4100.5128,4105.1282,4136.4103,4138.4615,4126.6667,4132.3077,4106.6667,4074.359,4128.7179,4109.7436
4109.7436,4134.359,4106.1538,4115.8974,4132.3077,4127.6923,4122.5641,4132.3077,4108.2051,4070.2564,4147.1795,4105.641
4112.8205,4131.2821,4110.2564,4119.4872,4127.1795,4126.1538,4124.1026,4133.8462,4114.359,4068.2051,4140.5128,4110.2564
4123.5897,4121.5385,4108.7179,4113.8462,4124.6154,4128.2051,4131.2821,4135.3846,4111.2821,4073.8462,4150.2564,4122.0513
4119.4872,4123.5897,4101.5385,4103.0769,4125.1282,4126.6667,4130.7692,4131.7949,4113.3333,4073.3333,4136.9231,4116.9231
4114.8718,4129.2308,4101.0256,4102.5641,4127.6923,4132.3077,4130.2564,4128.7179,4123.0769,4073.3333,4107.6923,4117.4359
4113.8462,4126.1538,4098.4615,4106.6667,4126.6667,4137.9487,4133.3333,4129.7436,4109.2308,4070.7692,4131.7949,4124.1026
4111.2821,4124.1026,4097.9487,4103.0769,4122.0513,4135.3846,4135.3846,4132.8205,4092.8205,4068.2051,4164.1026,4118.4615
4116.4103,4128.2051,4106.6667,4102.0513,4120,4133.3333,4136.4103,4132.8205,4101.5385,4071.2821,4137.9487,4111.7949
4114.8718,4133.3333,4108.2051,4112.8205,4123.0769,4131.2821,4132.8205,4127.6923,4105.1282,4070.7692,4113.3333,4105.1282
4107.1795,4134.359,4104.6154,4121.0256,4129.2308,4129.7436,4127.1795,4123.0769,4097.4359,4074.359,4133.3333,4104.6154
4106.1538,4130.7692,4101.0256,4112.8205,4128.7179,4126.6667,4118.9744,4115.8974,4094.8718,4071.2821,4134.359,4104.1026
4107.1795,4128.2051,4098.4615,4105.641,4125.641,4125.641,4119.4872,4115.3846,4093.8462,4065.1282,4122.0513,4100
4108.7179,4130.2564,4102.0513,4112.8205,4124.1026,4123.5897,4118.9744,4121.0256,4095.3846,4068.2051,4133.3333,4103.0769
4121.0256,4134.359,4110.7692,4115.3846,4125.1282,4117.4359,4112.3077,4123.0769,4103.0769,4077.4359,4137.4359,4113.3333
4134.8718,4133.8462,4115.8974,4117.4359,4130.7692,4116.9231,4117.9487,4124.6154,4111.2821,4087.6923,4130.7692,4127.1795
4127.1795,4129.2308,4109.2308,4122.5641,4131.2821,4113.8462,4121.5385,4121.0256,4102.0513,4083.5897,4136.9231,4124.6154
4117.4359,4130.2564,4104.1026,4117.4359,4122.5641,4112.8205,4116.4103,4114.8718,4087.6923,4072.8205,4145.641,4112.8205
4115.8974,4130.2564,4104.6154,4112.3077,4117.4359,4114.8718,4118.9744,4120,4092.3077,4069.2308,4126.6667,4109.2308
4106.1538,4124.1026,4098.9744,4116.4103,4125.1282,4114.8718,4122.5641,4126.6667,4096.4103,4063.5897,4117.9487,4103.5897
4103.0769,4124.1026,4097.9487,4121.5385,4127.1795,4120.5128,4124.1026,4123.5897,4089.7436,4063.0769,4150.7692,4102.0513
4112.3077,4131.2821,4102.5641,4121.0256,4116.4103,4122.5641,4122.0513,4118.4615,4084.1026,4067.1795,4160.5128,4104.1026
4113.3333,4136.9231,4102.5641,4120.5128,4121.0256,4117.9487,4119.4872,4121.5385,4085.641,4062.5641,4134.8718,4104.1026
4114.8718,4134.8718,4106.1538,4123.5897,4133.3333,4121.0256,4128.2051,4127.1795,4092.3077,4062.5641,4131.2821,4112.3077
4117.9487,4131.2821,4107.1795,4124.1026,4126.1538,4131.2821,4137.4359,4132.8205,4094.8718,4063.0769,4143.0769,4118.9744
4118.4615,4134.359,4101.5385,4128.2051,4122.0513,4138.9744,4135.8974,4132.8205,4095.3846,4058.9744,4141.5385,4115.8974
4119.4872,4131.7949,4100.5128,4130.7692,4131.7949,4134.359,4123.0769,4121.5385,4098.9744,4061.0256,4133.3333,4111.7949
4126.1538,4124.6154,4106.6667,4127.6923,4133.8462,4129.7436,4116.4103,4117.9487,4100.5128,4068.7179,4133.8462,4121.0256
4132.3077,4128.7179,4110.7692,4127.1795,4131.2821,4138.9744,4123.5897,4128.7179,4093.3333,4069.7436,4155.3846,4132.3077
4123.5897,4133.3333,4106.6667,4122.0513,4130.7692,4147.1795,4124.6154,4130.2564,4081.5385,4058.4615,4170.2564,4123.5897
4115.3846,4129.2308,4105.1282,4120.5128,4127.6923,4150.7692,4126.6667,4127.1795,4086.6667,4057.4359,4149.2308,4113.3333
4117.4359,4127.1795,4104.6154,4122.0513,4123.5897,4154.8718,4137.9487,4131.7949,4094.359,4065.1282,4127.6923,4115.8974
4121.0256,4133.3333,4105.1282,4119.4872,4125.641,4151.2821,4138.4615,4134.8718,4091.7949,4068.7179,4138.9744,4128.7179
4128.7179,4136.9231,4114.8718,4126.6667,4129.7436,4149.7436,4129.2308,4130.7692,4091.7949,4072.8205,4156.9231,4146.1538
4125.641,4130.7692,4113.3333,4129.2308,4127.1795,4155.3846,4125.641,4127.1795,4087.6923,4065.641,4146.6667,4137.9487
4112.8205,4127.1795,4100,4117.4359,4123.0769,4153.8462,4129.7436,4130.7692,4085.641,4056.9231,4130.2564,4117.4359
4112.3077,4125.641,4093.8462,4108.2051,4121.0256,4143.5897,4125.1282,4125.641,4089.7436,4058.9744,4143.0769,4124.6154
4121.5385,4128.7179,4100,4114.359,4127.6923,4144.1026,4124.1026,4118.9744,4088.2051,4060,4154.8718,4137.9487
4118.4615,4131.7949,4104.1026,4122.5641,4134.359,4150.7692,4136.4103,4129.2308,4089.2308,4058.9744,4128.7179,4124.6154
4113.8462,4129.7436,4105.1282,4118.9744,4130.2564,4138.4615,4130.7692,4134.359,4090.7692,4056.9231,4116.9231,4115.8974
4122.5641,4127.6923,4113.8462,4115.8974,4131.7949,4130.7692,4116.4103,4126.6667,4085.641,4058.4615,4154.359,4131.7949
4121.5385,4126.1538,4117.9487,4117.9487,4137.4359,4141.5385,4122.5641,4122.5641,4078.9744,4057.9487,4168.2051,4134.8718
4109.7436,4127.1795,4112.8205,4116.9231,4138.4615,4144.1026,4128.2051,4122.5641,4078.4615,4051.7949,4136.9231,4120
4108.7179,4128.7179,4109.2308,4114.359,4137.4359,4138.4615,4125.641,4123.0769,4087.6923,4051.7949,4122.0513,4115.3846
4112.3077,4129.2308,4109.7436,4113.3333,4135.8974,4138.9744,4128.7179,4127.1795,4092.3077,4055.3846,4129.2308,4116.9231
4117.4359,4131.2821,4114.359,4118.4615,4135.3846,4144.6154,4135.3846,4131.2821,4086.6667,4058.9744,4143.5897,4124.1026
4113.8462,4128.7179,4111.2821,4122.0513,4133.3333,4144.1026,4129.7436,4128.2051,4080.5128,4055.3846,4143.5897,4123.0769
4107.1795,4126.1538,4106.1538,4122.5641,4131.2821,4139.4872,4124.1026,4123.0769,4083.0769,4052.8205,4127.6923,4115.3846
4116.4103,4130.7692,4116.4103,4132.3077,4128.7179,4144.1026,4138.9744,4127.6923,4094.359,4066.6667,4147.1795,4130.2564
4124.6154,4134.359,4121.0256,4134.8718,4124.6154,4146.1538,4142.5641,4130.2564,4095.8974,4069.7436,4175.3846,4138.4615
4124.6154,4130.2564,4116.9231,4131.2821,4121.5385,4145.641,4130.7692,4129.2308,4090.2564,4062.0513,4170.2564,4127.6923
4123.5897,4123.0769,4116.9231,4133.8462,4119.4872,4145.641,4127.6923,4130.2564,4092.3077,4062.0513,4158.4615,4125.641
4111.7949,4122.0513,4112.8205,4124.6154,4116.9231,4138.4615,4127.1795,4127.6923,4091.7949,4055.3846,4148.7179,4116.9231
4109.2308,4127.6923,4112.8205,4108.7179,4115.8974,4130.7692,4128.7179,4127.6923,4089.2308,4056.4103,4146.6667,4112.3077
4120,4129.7436,4121.0256,4107.6923,4115.3846,4133.3333,4132.3077,4129.7436,4091.2821,4068.2051,4156.9231,4126.1538
4116.9231,4127.1795,4122.5641,4119.4872,4113.3333,4140,4134.359,4130.7692,4091.2821,4067.6923,4161.0256,4129.7436
4105.1282,4122.5641,4119.4872,4125.1282,4114.359,4138.4615,4132.3077,4130.7692,4087.6923,4062.0513,4157.9487,4122.0513
4095.3846,4122.5641,4117.9487,4116.4103,4116.9231,4131.7949,4129.2308,4126.1538,4080.5128,4058.9744,4155.8974,4114.359
4095.3846,4127.1795,4120.5128,4115.8974,4114.8718,4132.3077,4130.2564,4123.5897,4081.0256,4061.5385,4154.359,4115.8974
4101.5385,4126.6667,4125.1282,4126.1538,4112.8205,4135.8974,4128.7179,4124.6154,4085.641,4068.2051,4158.4615,4124.6154
4100,4125.1282,4126.1538,4129.7436,4121.5385,4137.4359,4131.2821,4129.2308,4088.7179,4071.2821,4160,4126.1538
4095.8974,4131.2821,4125.641,4134.359,4125.641,4137.4359,4139.4872,4133.8462,4094.8718,4073.3333,4152.3077,4121.5385
4100.5128,4134.359,4128.2051,4136.4103,4121.0256,4130.7692,4137.4359,4128.7179,4092.8205,4073.8462,4158.9744,4125.1282
4109.2308,4131.7949,4131.7949,4135.8974,4124.6154,4126.1538,4128.2051,4122.5641,4090.2564,4077.9487,4173.8462,4138.4615
4101.0256,4127.1795,4128.7179,4135.3846,4122.5641,4120.5128,4118.4615,4119.4872,4087.1795,4077.4359,4167.6923,4131.7949
4090.7692,4128.7179,4124.1026,4127.6923,4112.3077,4114.8718,4112.8205,4115.3846,4081.0256,4069.7436,4160.5128,4115.3846
4097.9487,4135.3846,4126.6667,4126.6667,4115.3846,4116.9231,4116.4103,4118.4615,4083.0769,4071.2821,4175.8974,4121.0256
4101.0256,4133.3333,4126.1538,4131.7949,4120.5128,4115.3846,4118.4615,4126.1538,4087.6923,4073.3333,4173.8462,4126.6667
4096.4103,4129.7436,4125.1282,4133.8462,4118.4615,4112.8205,4118.4615,4125.641,4087.1795,4071.7949,4169.2308,4126.6667
4099.4872,4131.7949,4126.6667,4135.3846,4116.4103,4112.8205,4121.0256,4115.3846,4082.0513,4072.3077,4182.5641,4128.2051
4096.9231,4131.2821,4122.0513,4134.359,4117.4359,4107.6923,4120,4114.8718,4080,4067.6923,4170.2564,4115.3846
4085.1282,4124.6154,4115.3846,4124.1026,4117.4359,4106.1538,4118.9744,4118.9744,4080,4062.0513,4150.2564,4103.0769
4085.641,4123.5897,4114.8718,4114.8718,4118.9744,4110.7692,4120.5128,4114.8718,4080,4061.5385,4161.5385,4108.7179
4101.5385,4133.3333,4120.5128,4129.2308,4127.6923,4115.3846,4128.7179,4117.4359,4087.1795,4068.7179,4172.3077,4119.4872
4103.5897,4133.3333,4120,4134.359,4126.1538,4115.8974,4131.7949,4124.1026,4090.2564,4072.3077,4158.9744,4120.5128
4091.2821,4123.0769,4114.8718,4117.4359,4113.8462,4110.7692,4124.6154,4121.5385,4081.5385,4069.7436,4154.8718,4118.4615
4094.359,4123.0769,4121.5385,4119.4872,4111.7949,4103.5897,4121.5385,4119.4872,4081.0256,4076.4103,4172.3077,4124.6154
4102.0513,4137.9487,4125.1282,4132.8205,4116.4103,4096.4103,4115.8974,4116.9231,4088.7179,4078.9744,4177.4359,4124.6154
4107.6923,4141.0256,4124.1026,4139.4872,4117.9487,4098.9744,4111.7949,4114.359,4092.8205,4078.4615,4180.5128,4129.2308
4109.2308,4122.0513,4129.7436,4125.641,4111.2821,4100,4118.4615,4115.8974,4089.2308,4082.5641,4184.1026,4135.3846
4088.2051,4117.4359,4125.1282,4094.8718,4106.1538,4097.4359,4124.6154,4114.359,4080.5128,4072.3077,4162.0513,4111.7949
4080.5128,4135.3846,4111.7949,4097.4359,4113.8462,4105.641,4136.4103,4123.5897,4084.1026,4067.1795,4159.4872,4099.4872
4092.3077,4132.8205,4110.2564,4126.6667,4117.4359,4103.5897,4140.5128,4131.2821,4093.8462,4073.8462,4174.8718,4111.2821
4092.3077,4122.0513,4118.4615,4129.7436,4109.2308,4092.3077,4126.1538,4120.5128,4094.8718,4072.3077,4161.0256,4110.2564
4088.7179,4131.7949,4117.4359,4128.2051,4108.7179,4095.3846,4120,4109.2308,4093.3333,4067.1795,4145.641,4103.5897
4095.3846,4137.4359,4113.3333,4138.4615,4116.4103,4100,4121.5385,4112.3077,4091.2821,4068.7179,4169.2308,4108.7179
4100,4130.2564,4117.9487,4132.8205,4110.2564,4094.8718,4113.3333,4116.4103,4092.8205,4072.3077,4184.6154,4110.7692
4087.6923,4128.2051,4112.8205,4128.7179,4102.5641,4097.9487,4109.2308,4111.7949,4095.3846,4064.1026,4161.0256,4100
4078.4615,4131.7949,4102.5641,4149.2308,4110.2564,4110.7692,4127.6923,4115.8974,4092.3077,4058.9744,4149.7436,4094.8718
4081.5385,4129.7436,4105.1282,4154.359,4109.2308,4112.8205,4137.9487,4120.5128,4087.6923,4066.1538,4163.5897,4096.4103
4086.6667,4127.1795,4113.3333,4141.0256,4102.0513,4104.1026,4127.6923,4117.4359,4092.3077,4071.2821,4165.1282,4095.3846
4091.2821,4124.6154,4116.4103,4138.4615,4103.0769,4102.5641,4126.1538,4116.4103,4100,4072.8205,4151.2821,4096.9231
4085.1282,4122.5641,4108.7179,4138.9744,4105.641,4099.4872,4127.6923,4115.8974,4092.3077,4068.2051,4143.0769,4090.7692
4083.5897,4125.1282,4110.7692,4143.0769,4108.2051,4100.5128,4127.6923,4123.0769,4086.6667,4067.1795,4151.7949,4094.359
4094.359,4132.3077,4120.5128,4149.2308,4112.8205,4110.2564,4128.7179,4126.1538,4095.8974,4072.8205,4165.1282,4105.641
4090.2564,4138.4615,4111.2821,4148.7179,4115.8974,4119.4872,4125.641,4115.3846,4094.359,4065.641,4153.3333,4096.9231
4083.0769,4127.1795,4103.0769,4134.8718,4116.4103,4128.2051,4128.7179,4108.2051,4091.2821,4061.5385,4137.4359,4092.3077
4083.0769,4119.4872,4108.7179,4117.9487,4112.8205,4130.7692,4130.7692,4110.7692,4093.8462,4068.2051,4145.1282,4101.5385
4082.5641,4137.4359,4106.6667,4127.6923,4119.4872,4127.6923,4126.6667,4118.4615,4093.3333,4071.2821,4165.1282,4106.6667
4088.2051,4138.4615,4101.5385,4140.5128,4133.3333,4122.5641,4120.5128,4122.0513,4099.4872,4075.3846,4163.5897,4115.3846
4091.7949,4120,4109.7436,4132.8205,4121.5385,4107.1795,4104.1026,4112.3077,4103.0769,4072.3077,4141.0256,4113.8462
4094.359,4130.2564,4118.4615,4137.4359,4112.3077,4110.2564,4107.1795,4113.8462,4097.4359,4071.7949,4153.8462,4112.3077
4100.5128,4145.1282,4112.3077,4142.0513,4128.2051,4132.3077,4130.2564,4130.7692,4097.9487,4080,4170.2564,4126.1538
4093.3333,4127.1795,4101.5385,4118.9744,4127.1795,4129.7436,4124.1026,4125.1282,4095.3846,4069.2308,4144.6154,4113.8462
4072.8205,4116.4103,4095.3846,4106.6667,4115.3846,4118.4615,4109.2308,4109.7436,4087.6923,4053.8462,4127.1795,4088.7179
4080.5128,4133.8462,4101.0256,4123.5897,4127.1795,4134.8718,4126.1538,4117.9487,4093.3333,4066.6667,4143.0769,4104.1026
4090.2564,4130.7692,4101.0256,4121.5385,4131.2821,4137.9487,4127.1795,4116.4103,4095.8974,4070.2564,4142.5641,4111.7949
4067.6923,4113.8462,4083.0769,4100.5128,4110.7692,4108.2051,4090.7692,4091.2821,4083.0769,4049.7436,4122.0513,4080
4070.2564,4129.7436,4086.6667,4114.8718,4115.8974,4102.0513,4088.2051,4098.4615,4090.7692,4058.9744,4120.5128,4086.6667
4105.1282,4138.9744,4116.9231,4144.6154,4138.4615,4120,4118.4615,4126.1538,4107.6923,4091.2821,4137.4359,4126.1538
4099.4872,4122.0513,4113.8462,4124.1026,4138.9744,4118.9744,4121.5385,4122.5641,4093.3333,4080,4146.6667,4113.8462
4068.7179,4123.0769,4080,4094.8718,4134.8718,4115.8974,4113.3333,4112.3077,4083.5897,4059.4872,4139.4872,4089.2308
4072.3077,4134.8718,4079.4872,4101.5385,4142.0513,4127.6923,4117.9487,4119.4872,4098.4615,4071.7949,4132.8205,4101.5385
4080.5128,4128.2051,4091.7949,4103.5897,4150.7692,4132.8205,4114.8718,4115.8974,4102.0513,4076.4103,4130.7692,4108.7179
4080,4127.6923,4091.7949,4104.6154,4155.8974,4130.7692,4112.8205,4107.6923,4095.8974,4070.7692,4146.1538,4107.6923
4082.0513,4133.3333,4090.7692,4112.3077,4147.1795,4123.5897,4113.8462,4108.7179,4093.3333,4070.7692,4151.2821,4106.1538
4085.641,4128.2051,4094.359,4111.2821,4141.5385,4120,4113.8462,4113.3333,4093.3333,4075.3846,4139.4872,4104.6154
4094.8718,4127.1795,4102.0513,4115.3846,4150.2564,4130.2564,4127.6923,4120.5128,4097.9487,4081.5385,4145.1282,4115.8974
4084.1026,4126.1538,4094.8718,4113.8462,4149.7436,4128.2051,4127.1795,4116.9231,4095.3846,4072.3077,4137.9487,4107.6923
4075.8974,4124.6154,4090.7692,4103.0769,4142.5641,4118.9744,4110.7692,4109.2308,4092.3077,4069.2308,4121.5385,4094.359
4088.2051,4128.7179,4100,4101.0256,4141.5385,4121.0256,4114.8718,4110.2564,4092.3077,4074.8718,4128.7179,4100.5128
4092.3077,4129.7436,4101.0256,4108.2051,4151.2821,4128.2051,4131.7949,4117.9487,4088.2051,4072.8205,4144.6154,4101.5385
4085.1282,4120.5128,4092.3077,4110.7692,4154.359,4128.7179,4135.3846,4124.1026,4092.3077,4072.8205,4138.4615,4096.9231
4089.2308,4120.5128,4096.9231,4109.2308,4152.3077,4125.641,4130.7692,4125.641,4095.8974,4080.5128,4134.359,4104.1026
4100,4131.2821,4108.2051,4114.359,4154.359,4125.641,4133.3333,4123.0769,4091.7949,4085.641,4148.2051,4111.7949
4092.8205,4129.7436,4098.9744,4119.4872,4152.8205,4118.9744,4126.1538,4114.8718,4090.2564,4077.9487,4142.5641,4097.9487
4082.0513,4118.4615,4087.1795,4111.7949,4149.7436,4120,4121.0256,4113.8462,4091.2821,4072.3077,4131.7949,4088.2051
4083.0769,4121.0256,4087.1795,4111.2821,4156.4103,4134.359,4134.359,4119.4872,4089.7436,4077.9487,4134.8718,4095.3846
4090.2564,4134.8718,4092.3077,4127.6923,4163.5897,4135.8974,4139.4872,4124.1026,4089.7436,4081.5385,4138.4615,4100
4097.9487,4130.2564,4101.5385,4131.2821,4157.9487,4126.6667,4132.8205,4129.2308,4096.9231,4084.6154,4140,4107.1795
4094.359,4120,4101.0256,4121.5385,4156.4103,4127.1795,4130.2564,4128.7179,4098.4615,4088.2051,4141.5385,4111.7949
4086.1538,4122.5641,4091.2821,4122.5641,4160.5128,4129.2308,4133.3333,4124.1026,4095.8974,4083.0769,4142.5641,4104.6154
4086.6667,4123.5897,4089.2308,4127.1795,4151.2821,4120.5128,4129.2308,4120.5128,4097.9487,4074.359,4136.4103,4094.8718
4090.7692,4123.5897,4094.8718,4126.1538,4148.7179,4110.7692,4117.9487,4114.359,4094.359,4071.2821,4126.6667,4091.2821
4095.3846,4127.6923,4099.4872,4132.8205,4158.9744,4108.7179,4117.4359,4113.3333,4092.3077,4077.4359,4132.3077,4098.9744
4097.9487,4126.1538,4098.4615,4138.9744,4152.8205,4104.1026,4120,4116.4103,4096.9231,4078.9744,4146.6667,4105.641
4099.4872,4121.0256,4098.4615,4136.4103,4141.0256,4100.5128,4118.4615,4117.4359,4096.9231,4074.8718,4142.5641,4103.0769
4105.1282,4123.5897,4103.0769,4140.5128,4149.2308,4107.6923,4124.1026,4123.5897,4096.4103,4082.5641,4134.359,4105.1282
4101.0256,4123.0769,4098.9744,4135.3846,4150.7692,4107.6923,4125.1282,4124.6154,4095.8974,4081.5385,4141.0256,4104.1026
4098.9744,4121.5385,4097.9487,4130.2564,4139.4872,4104.1026,4122.0513,4122.5641,4101.5385,4075.8974,4156.4103,4103.5897
4107.1795,4124.6154,4106.1538,4143.0769,4143.0769,4108.7179,4130.2564,4125.641,4108.2051,4084.6154,4168.2051,4111.2821
4102.0513,4120.5128,4103.5897,4137.4359,4148.7179,4110.7692,4131.7949,4123.0769,4104.1026,4083.5897,4158.9744,4107.6923
4088.2051,4111.2821,4095.8974,4119.4872,4136.4103,4108.2051,4127.6923,4115.8974,4099.4872,4075.3846,4140.5128,4091.7949
4085.641,4113.3333,4094.8718,4128.2051,4134.8718,4112.8205,4131.7949,4124.6154,4100.5128,4078.4615,4133.8462,4085.1282
4094.8718,4127.1795,4105.641,4150.2564,4145.1282,4119.4872,4131.7949,4136.4103,4109.2308,4090.7692,4146.6667,4098.4615
4098.4615,4128.2051,4115.3846,4146.6667,4138.4615,4116.4103,4120.5128,4125.641,4114.8718,4094.8718,4157.4359,4103.5897
4091.7949,4117.4359,4105.641,4136.9231,4132.8205,4111.7949,4114.8718,4114.359,4109.7436,4089.2308,4148.2051,4089.2308
4090.7692,4114.8718,4094.8718,4138.9744,4141.5385,4113.8462,4118.4615,4120,4107.6923,4088.2051,4143.0769,4089.2308
4086.6667,4113.3333,4091.7949,4128.2051,4139.4872,4112.3077,4114.8718,4116.9231,4109.2308,4084.1026,4142.5641,4091.2821
4078.4615,4115.8974,4084.6154,4126.1538,4133.3333,4111.7949,4114.359,4112.8205,4105.1282,4082.0513,4135.8974,4080.5128
4077.9487,4120,4077.9487,4137.9487,4136.4103,4112.8205,4116.4103,4114.8718,4103.5897,4082.5641,4127.6923,4067.6923
4072.8205,4118.4615,4073.8462,4132.8205,4141.0256,4112.3077,4112.8205,4116.9231,4105.641,4076.4103,4124.1026,4058.4615
4067.1795,4115.8974,4072.3077,4124.1026,4141.0256,4114.359,4116.9231,4120.5128,4105.1282,4076.4103,4128.2051,4056.9231
4065.1282,4116.4103,4073.3333,4124.6154,4138.9744,4112.3077,4121.5385,4116.9231,4098.4615,4075.3846,4124.6154,4053.8462
4066.1538,4120,4080.5128,4126.1538,4138.4615,4117.4359,4123.0769,4115.3846,4095.3846,4072.8205,4120,4053.8462
4072.3077,4121.0256,4085.641,4129.7436,4140.5128,4127.6923,4128.2051,4122.0513,4101.5385,4077.9487,4128.2051,4062.0513
4071.7949,4123.0769,4081.0256,4137.4359,4135.3846,4120,4122.0513,4121.0256,4105.1282,4077.4359,4135.3846,4063.5897
4067.1795,4125.1282,4075.3846,4138.9744,4133.3333,4108.7179,4111.7949,4115.8974,4111.2821,4074.359,4135.8974,4065.1282
4069.7436,4118.4615,4077.4359,4131.2821,4130.2564,4108.2051,4117.9487,4120,4120,4077.4359,4139.4872,4070.7692
4078.9744,4120,4086.6667,4133.8462,4127.1795,4113.3333,4131.2821,4127.1795,4121.5385,4080.5128,4147.1795,4071.7949
4082.0513,4128.2051,4090.7692,4140,4134.359,4123.5897,4138.9744,4131.2821,4122.5641,4086.1538,4150.2564,4073.3333
4082.0513,4120,4094.8718,4128.2051,4133.3333,4127.1795,4134.8718,4131.2821,4129.2308,4090.2564,4156.4103,4076.9231
4088.2051,4112.3077,4104.1026,4126.6667,4129.2308,4124.6154,4125.641,4127.6923,4136.9231,4090.7692,4181.0256,4081.5385
4086.6667,4125.1282,4100.5128,4142.5641,4136.4103,4129.2308,4123.5897,4128.2051,4133.8462,4090.2564,4192.3077,4076.9231
4077.4359,4129.7436,4090.2564,4137.9487,4141.0256,4135.8974,4127.1795,4131.7949,4130.7692,4087.1795,4173.8462,4070.2564
4075.3846,4118.4615,4090.7692,4122.0513,4130.7692,4131.2821,4124.6154,4127.6923,4134.8718,4085.1282,4163.5897,4074.359
4079.4872,4116.9231,4092.3077,4120,4118.9744,4127.6923,4121.0256,4123.5897,4134.359,4088.2051,4167.1795,4081.0256
4083.0769,4125.1282,4091.7949,4128.2051,4125.641,4140,4131.2821,4128.7179,4129.7436,4092.3077,4167.1795,4083.5897
4084.6154,4126.1538,4091.7949,4133.8462,4132.8205,4143.5897,4131.7949,4126.6667,4126.6667,4089.2308,4161.0256,4085.641
4091.7949,4123.0769,4095.3846,4137.9487,4129.2308,4138.9744,4125.1282,4125.641,4128.7179,4090.2564,4160,4090.2564
4105.1282,4126.6667,4107.1795,4147.6923,4134.8718,4154.8718,4139.4872,4140.5128,4137.9487,4107.6923,4168.2051,4105.641
4103.0769,4130.7692,4111.2821,4161.0256,4146.1538,4168.2051,4153.3333,4148.2051,4142.0513,4110.7692,4168.2051,4110.7692
4094.359,4125.1282,4105.641,4158.9744,4137.9487,4158.4615,4149.7436,4138.9744,4139.4872,4098.9744,4165.1282,4104.1026
4102.0513,4123.0769,4107.6923,4151.7949,4128.7179,4153.3333,4144.1026,4133.3333,4141.0256,4104.6154,4172.3077,4110.7692
4111.2821,4126.1538,4115.3846,4163.5897,4135.3846,4160.5128,4148.2051,4137.4359,4142.0513,4109.2308,4173.8462,4118.9744
4112.8205,4126.1538,4120,4169.7436,4136.4103,4160.5128,4154.8718,4137.9487,4143.0769,4105.641,4169.7436,4120
4103.5897,4128.2051,4116.9231,4151.7949,4132.8205,4155.8974,4151.2821,4134.359,4145.1282,4104.1026,4169.2308,4118.9744
4094.8718,4127.1795,4114.8718,4148.2051,4135.8974,4160,4148.7179,4140,4147.6923,4105.641,4174.359,4118.9744
4102.0513,4125.1282,4116.9231,4169.2308,4135.8974,4163.5897,4154.359,4145.641,4153.3333,4105.641,4180,4120.5128
4112.3077,4135.8974,4117.9487,4174.359,4137.9487,4156.9231,4149.7436,4141.5385,4157.4359,4105.1282,4178.9744,4123.5897
4114.359,4133.3333,4122.0513,4165.1282,4141.5385,4156.9231,4147.1795,4142.0513,4158.4615,4111.7949,4176.4103,4125.1282
4110.7692,4115.8974,4129.2308,4167.1795,4136.4103,4167.6923,4163.0769,4146.1538,4158.4615,4115.3846,4181.5385,4121.5385
4117.4359,4126.6667,4137.4359,4178.4615,4137.4359,4176.9231,4175.3846,4149.2308,4163.0769,4120.5128,4195.3846,4130.2564
4130.2564,4141.5385,4144.6154,4180.5128,4136.4103,4170.7692,4165.1282,4148.2051,4164.1026,4124.6154,4197.9487,4141.5385
4126.6667,4128.7179,4142.5641,4174.359,4129.2308,4161.0256,4154.359,4142.5641,4158.4615,4118.4615,4188.7179,4134.8718
4114.359,4124.6154,4132.8205,4185.1282,4133.8462,4166.1538,4162.0513,4144.1026,4163.5897,4118.9744,4192.8205,4128.7179
4110.7692,4130.2564,4129.2308,4194.8718,4132.3077,4165.641,4162.5641,4147.1795,4165.1282,4118.4615,4191.2821,4123.5897
4114.8718,4125.1282,4134.8718,4185.641,4124.6154,4157.9487,4152.8205,4147.1795,4158.9744,4112.3077,4184.6154,4122.5641
4110.2564,4124.1026,4135.3846,4176.4103,4127.6923,4158.9744,4153.8462,4147.1795,4160,4111.7949,4186.1538,4125.641
4097.4359,4129.2308,4126.1538,4174.8718,4129.7436,4164.1026,4160.5128,4140,4158.4615,4108.2051,4171.7949,4113.8462
4104.6154,4127.6923,4128.7179,4178.9744,4129.7436,4164.1026,4162.5641,4135.8974,4155.3846,4112.3077,4164.1026,4110.7692
4122.0513,4124.1026,4142.0513,4179.4872,4130.7692,4156.4103,4151.2821,4138.4615,4160,4120.5128,4184.1026,4125.1282
4122.5641,4129.2308,4147.6923,4173.8462,4127.6923,4152.3077,4142.5641,4143.5897,4163.5897,4122.0513,4195.8974,4127.6923
4120,4134.359,4142.0513,4177.4359,4128.2051,4158.9744,4151.2821,4145.1282,4163.0769,4126.1538,4185.641,4123.5897
4121.5385,4130.7692,4134.8718,4187.6923,4137.9487,4164.6154,4161.5385,4144.1026,4162.0513,4124.6154,4175.3846,4121.0256
4118.4615,4122.0513,4133.3333,4181.0256,4132.8205,4165.641,4163.5897,4143.5897,4160,4118.9744,4172.3077,4116.9231
4112.3077,4123.0769,4132.8205,4168.7179,4115.3846,4165.1282,4162.5641,4142.5641,4155.8974,4120,4172.3077,4117.9487
4113.8462,4130.7692,4132.8205,4178.4615,4121.0256,4163.5897,4165.1282,4145.1282,4155.3846,4122.5641,4173.3333,4121.0256
4114.8718,4126.6667,4132.8205,4185.641,4134.359,4161.0256,4166.6667,4147.6923,4153.3333,4118.4615,4167.1795,4115.8974
4109.7436,4122.5641,4127.6923,4174.359,4129.2308,4155.3846,4161.0256,4145.1282,4146.6667,4112.8205,4156.9231,4109.2308
4115.8974,4126.6667,4130.2564,4174.8718,4123.0769,4159.4872,4162.5641,4144.6154,4147.1795,4118.4615,4162.0513,4118.4615
4123.5897,4127.6923,4139.4872,4181.0256,4126.1538,4165.1282,4169.2308,4144.6154,4151.7949,4121.0256,4168.7179,4127.6923
4116.9231,4124.1026,4136.4103,4173.3333,4122.5641,4154.359,4159.4872,4137.9487,4147.1795,4112.8205,4156.4103,4116.4103
4117.4359,4125.1282,4134.8718,4177.9487,4116.9231,4144.6154,4152.3077,4133.8462,4147.6923,4115.8974,4153.8462,4113.8462
4123.5897,4128.2051,4141.0256,4189.2308,4118.4615,4145.1282,4155.3846,4136.9231,4154.8718,4120,4165.1282,4124.1026
4118.4615,4127.1795,4139.4872,4182.0513,4121.5385,4141.5385,4151.2821,4141.5385,4155.8974,4114.359,4164.1026,4124.6154
4111.2821,4124.1026,4133.3333,4169.2308,4125.1282,4137.4359,4147.6923,4138.9744,4150.7692,4109.7436,4155.3846,4120
4113.3333,4127.1795,4134.8718,4169.7436,4123.0769,4144.6154,4157.9487,4140,4147.6923,4110.2564,4158.9744,4118.9744
4120,4127.1795,4142.0513,4177.9487,4114.8718,4146.6667,4171.7949,4149.2308,4151.2821,4115.3846,4164.1026,4122.5641
4115.8974,4122.0513,4141.0256,4179.4872,4117.9487,4137.4359,4167.6923,4146.6667,4148.7179,4114.8718,4153.8462,4119.4872
4111.2821,4127.1795,4140.5128,4176.9231,4129.2308,4140.5128,4160.5128,4140.5128,4143.5897,4114.359,4146.1538,4117.9487
4110.2564,4127.6923,4140,4166.6667,4124.6154,4148.7179,4161.5385,4144.1026,4146.1538,4115.8974,4150.2564,4111.7949
4101.5385,4109.2308,4132.3077,4155.3846,4112.8205,4142.0513,4158.9744,4137.9487,4143.5897,4107.6923,4140,4095.8974
4101.5385,4108.7179,4129.7436,4167.1795,4113.3333,4135.3846,4151.7949,4125.641,4140.5128,4109.2308,4125.641,4096.9231
4110.7692,4134.8718,4133.8462,4177.9487,4122.5641,4135.8974,4145.1282,4127.1795,4147.1795,4121.0256,4133.8462,4109.7436
4116.4103,4140.5128,4138.9744,4168.7179,4126.1538,4138.4615,4148.2051,4133.3333,4151.2821,4121.0256,4148.2051,4112.8205
4114.8718,4123.5897,4138.4615,4165.641,4119.4872,4136.4103,4150.2564,4130.2564,4144.1026,4117.4359,4138.9744,4105.641
4112.3077,4121.5385,4134.8718,4171.7949,4120,4129.7436,4144.6154,4132.3077,4137.4359,4120.5128,4124.6154,4105.1282
4118.9744,4126.1538,4136.4103,4171.2821,4125.641,4125.641,4145.1282,4135.3846,4144.1026,4124.6154,4132.8205,4111.2821
4114.359,4121.0256,4132.8205,4162.0513,4123.0769,4123.0769,4144.6154,4129.2308,4147.1795,4118.9744,4134.359,4103.0769
4097.4359,4120.5128,4123.0769,4154.8718,4126.1538,4121.5385,4139.4872,4128.7179,4136.4103,4111.7949,4120.5128,4090.2564
4098.4615,4122.5641,4123.0769,4147.1795,4126.1538,4118.4615,4132.3077,4124.6154,4131.7949,4110.7692,4113.3333,4089.2308
4106.6667,4122.5641,4128.7179,4144.1026,4114.359,4112.3077,4130.7692,4120.5128,4134.8718,4109.7436,4113.3333,4090.7692
4106.1538,4124.6154,4130.2564,4156.4103,4114.359,4110.7692,4139.4872,4133.8462,4139.4872,4116.4103,4119.4872,4092.3077
4110.7692,4123.0769,4133.8462,4164.1026,4122.5641,4113.3333,4145.641,4138.4615,4138.9744,4122.0513,4125.641,4098.4615
4114.359,4122.5641,4132.8205,4163.5897,4121.0256,4120,4145.1282,4126.6667,4137.9487,4121.5385,4124.1026,4101.5385
4110.7692,4126.6667,4129.7436,4164.6154,4118.9744,4122.5641,4144.6154,4128.7179,4136.9231,4122.5641,4113.3333,4097.9487
4107.6923,4125.1282,4130.2564,4153.3333,4115.3846,4114.8718,4141.0256,4135.3846,4130.2564,4120,4106.1538,4092.8205
4106.6667,4121.5385,4130.2564,4143.5897,4114.8718,4114.8718,4142.5641,4131.7949,4132.8205,4118.9744,4111.7949,4098.9744
4104.1026,4124.6154,4123.5897,4153.3333,4117.4359,4123.0769,4148.2051,4129.2308,4140,4117.4359,4113.3333,4105.1282
4107.1795,4125.1282,4124.1026,4153.8462,4117.9487,4124.6154,4142.0513,4128.2051,4136.4103,4112.3077,4106.6667,4103.5897
4117.4359,4122.0513,4136.9231,4144.1026,4123.5897,4125.1282,4134.359,4126.6667,4138.4615,4119.4872,4112.8205,4110.2564
4116.9231,4125.1282,4135.8974,4150.2564,4129.2308,4125.641,4133.8462,4123.5897,4140.5128,4121.0256,4115.3846,4111.7949
4109.7436,4126.6667,4122.5641,4161.0256,4127.6923,4125.641,4136.4103,4124.6154,4121.0256,4114.8718,4106.6667,4102.0513
4106.6667,4121.5385,4123.0769,4151.2821,4123.5897,4127.6923,4137.9487,4128.2051,4092.8205,4116.9231,4100.5128,4100.5128
4110.7692,4124.1026,4133.8462,4144.1026,4122.5641,4127.1795,4134.359,4131.7949,4087.1795,4116.9231,4097.9487,4110.7692
4120.5128,4129.7436,4138.9744,4154.8718,4130.7692,4131.2821,4139.4872,4135.8974,4099.4872,4118.9744,4107.6923,4123.5897
4121.5385,4116.4103,4140.5128,4148.7179,4130.7692,4136.9231,4141.5385,4132.8205,4098.9744,4121.5385,4113.3333,4124.1026
4123.5897,4112.8205,4148.7179,4144.6154,4118.4615,4133.3333,4133.3333,4128.7179,4094.359,4123.5897,4106.6667,4124.1026
4128.7179,4129.7436,4146.1538,4161.0256,4116.4103,4127.6923,4134.8718,4131.2821,4099.4872,4125.1282,4104.1026,4130.2564
4122.0513,4127.1795,4133.3333,4164.6154,4126.6667,4128.7179,4143.0769,4131.2821,4098.4615,4121.0256,4101.5385,4127.6923
4116.9231,4117.9487,4131.7949,4152.3077,4125.641,4128.2051,4137.9487,4121.5385,4092.8205,4117.4359,4094.359,4121.5385
4122.5641,4125.1282,4138.9744,4146.6667,4116.9231,4120.5128,4121.0256,4116.4103,4093.8462,4115.8974,4092.8205,4120.5128
4131.7949,4127.6923,4144.6154,4152.3077,4123.0769,4118.9744,4122.0513,4126.6667,4102.0513,4123.0769,4104.6154,4130.7692
4136.9231,4124.1026,4146.6667,4161.0256,4129.7436,4126.6667,4135.8974,4129.7436,4106.6667,4126.6667,4112.8205,4140.5128
4137.4359,4130.7692,4144.1026,4166.6667,4132.8205,4130.2564,4140,4130.7692,4103.5897,4123.0769,4109.2308,4136.9231
4140.5128,4132.3077,4149.7436,4163.5897,4131.7949,4128.7179,4142.5641,4139.4872,4108.7179,4131.2821,4113.3333,4137.4359
4140,4120,4156.9231,4153.3333,4125.641,4121.5385,4141.0256,4140.5128,4112.3077,4135.8974,4118.4615,4139.4872
4137.9487,4125.1282,4154.8718,4157.4359,4130.7692,4122.0513,4142.0513,4136.9231,4108.2051,4130.2564,4115.8974,4136.9231
4136.4103,4137.4359,4150.2564,4169.2308,4140,4130.2564,4146.6667,4137.9487,4109.2308,4127.1795,4109.2308,4134.8718
4131.2821,4124.6154,4148.7179,4154.8718,4135.3846,4124.6154,4143.0769,4134.8718,4107.1795,4125.1282,4098.4615,4124.6154
4131.7949,4116.9231,4154.359,4144.6154,4130.7692,4115.3846,4136.4103,4126.6667,4102.5641,4128.7179,4095.3846,4120
4135.3846,4133.3333,4156.4103,4163.5897,4134.8718,4116.9231,4133.8462,4127.1795,4105.1282,4134.8718,4105.1282,4129.7436
4134.8718,4137.9487,4150.7692,4169.7436,4133.8462,4127.6923,4138.9744,4133.8462,4108.2051,4134.359,4111.2821,4136.9231
4132.3077,4126.1538,4148.7179,4159.4872,4130.7692,4133.8462,4146.6667,4134.8718,4105.641,4132.8205,4102.0513,4129.2308
4131.7949,4123.5897,4153.8462,4166.1538,4131.7949,4121.0256,4136.9231,4132.3077,4104.6154,4133.3333,4093.8462,4122.5641
4138.4615,4128.7179,4160,4180,4134.8718,4108.2051,4123.5897,4136.4103,4110.7692,4139.4872,4103.5897,4135.3846
4135.8974,4131.7949,4153.3333,4175.3846,4139.4872,4113.8462,4130.7692,4137.9487,4107.6923,4140,4104.6154,4138.4615
4126.1538,4134.359,4142.5641,4169.2308,4137.9487,4122.5641,4142.5641,4132.8205,4101.5385,4132.8205,4093.8462,4124.1026
4129.2308,4127.1795,4145.1282,4167.1795,4132.3077,4116.4103,4140,4131.2821,4103.5897,4132.3077,4092.3077,4117.9487
4128.7179,4122.5641,4146.6667,4160.5128,4134.8718,4115.3846,4133.3333,4129.7436,4100.5128,4129.2308,4089.2308,4113.3333
4121.5385,4127.6923,4141.5385,4161.0256,4140.5128,4126.1538,4136.4103,4130.7692,4098.4615,4129.2308,4088.2051,4113.3333
4122.5641,4127.1795,4142.5641,4162.5641,4132.3077,4126.6667,4140,4131.2821,4097.9487,4132.8205,4089.7436,4115.3846
4128.2051,4127.6923,4149.7436,4155.8974,4125.641,4124.1026,4140,4129.7436,4095.3846,4128.2051,4085.641,4113.3333
4129.7436,4128.7179,4144.6154,4153.3333,4131.7949,4130.7692,4140.5128,4130.7692,4098.9744,4126.1538,4083.0769,4113.8462
4120.5128,4121.0256,4127.6923,4153.8462,4130.7692,4128.2051,4140,4130.7692,4097.4359,4126.6667,4078.9744,4109.2308
4124.6154,4121.5385,4136.9231,4156.4103,4126.6667,4126.6667,4150.7692,4133.3333,4096.4103,4134.359,4086.6667,4113.3333
4143.5897,4134.8718,4160.5128,4157.4359,4129.7436,4135.8974,4158.9744,4134.8718,4105.641,4143.0769,4105.641,4135.8974
4142.5641,4138.4615,4154.8718,4157.4359,4136.4103,4132.8205,4145.1282,4132.8205,4109.2308,4142.5641,4109.7436,4142.5641
4130.7692,4128.2051,4143.0769,4153.3333,4135.3846,4116.9231,4126.6667,4130.7692,4104.6154,4142.5641,4100,4129.7436
4127.6923,4124.1026,4149.7436,4140.5128,4127.1795,4110.2564,4126.6667,4129.7436,4102.5641,4141.0256,4097.4359,4123.5897
4127.1795,4132.3077,4152.8205,4139.4872,4124.1026,4118.4615,4139.4872,4131.2821,4105.1282,4140,4103.0769,4127.1795
4122.5641,4133.3333,4146.1538,4147.6923,4124.6154,4123.0769,4144.1026,4134.8718,4107.1795,4141.0256,4100.5128,4125.641
4117.9487,4123.0769,4143.5897,4143.5897,4124.6154,4118.4615,4138.9744,4136.9231,4103.5897,4139.4872,4095.3846,4119.4872
4120,4121.0256,4145.641,4137.4359,4123.0769,4118.4615,4136.9231,4135.8974,4101.5385,4139.4872,4095.8974,4120
4121.5385,4128.2051,4146.1538,4140.5128,4120,4114.359,4131.7949,4130.7692,4101.5385,4137.4359,4092.8205,4118.4615
4119.4872,4127.6923,4149.2308,4141.0256,4123.5897,4106.1538,4125.641,4127.6923,4103.5897,4135.8974,4087.6923,4114.8718
4117.4359,4124.6154,4149.2308,4137.9487,4129.7436,4108.2051,4127.6923,4131.7949,4107.1795,4138.9744,4091.2821,4112.3077
4122.0513,4132.8205,4146.6667,4148.2051,4133.8462,4110.2564,4127.6923,4132.8205,4108.7179,4140.5128,4096.9231,4113.3333
4124.6154,4133.8462,4146.1538,4157.9487,4135.3846,4109.7436,4126.6667,4124.6154,4105.641,4140,4094.359,4116.4103
4115.8974,4122.0513,4141.5385,4147.1795,4129.2308,4111.2821,4128.2051,4118.9744,4096.4103,4136.4103,4084.6154,4110.2564
4115.3846,4123.0769,4142.0513,4141.5385,4126.6667,4110.2564,4128.2051,4126.1538,4095.3846,4134.359,4082.5641,4107.6923
4120.5128,4128.7179,4146.6667,4149.7436,4130.7692,4105.641,4124.6154,4132.8205,4098.9744,4133.8462,4085.1282,4113.8462
4113.8462,4124.6154,4142.0513,4142.0513,4130.7692,4106.1538,4120.5128,4127.6923,4093.3333,4130.2564,4077.4359,4108.7179
4112.8205,4121.5385,4137.4359,4132.3077,4122.0513,4109.2308,4118.9744,4123.0769,4090.2564,4131.2821,4070.7692,4104.1026
4116.9231,4123.0769,4140,4131.7949,4118.4615,4106.1538,4114.8718,4119.4872,4090.2564,4126.1538,4073.3333,4106.6667
4109.7436,4123.5897,4137.4359,4126.6667,4124.6154,4102.5641,4115.3846,4121.0256,4087.6923,4118.4615,4074.359,4102.5641
4104.1026,4122.0513,4132.8205,4122.5641,4122.0513,4102.0513,4119.4872,4129.2308,4090.7692,4126.6667,4071.7949,4100
4105.641,4121.5385,4130.7692,4126.1538,4120,4111.2821,4125.641,4127.1795,4094.8718,4130.7692,4069.7436,4102.0513
4111.2821,4127.1795,4130.7692,4133.3333,4126.6667,4121.0256,4131.2821,4115.8974,4095.3846,4130.7692,4074.8718,4107.1795
4111.7949,4127.1795,4128.7179,4129.7436,4127.1795,4107.1795,4122.0513,4113.8462,4094.359,4133.8462,4076.9231,4106.6667
4107.6923,4120.5128,4128.2051,4117.4359,4123.0769,4096.9231,4114.359,4123.0769,4092.3077,4133.3333,4073.3333,4101.5385
4111.7949,4121.0256,4132.8205,4120.5128,4123.0769,4109.7436,4119.4872,4126.1538,4093.3333,4135.8974,4072.8205,4103.5897
4113.3333,4122.5641,4130.7692,4131.7949,4119.4872,4111.2821,4114.8718,4118.9744,4089.7436,4133.3333,4069.2308,4103.0769
4114.8718,4124.1026,4131.7949,4133.3333,4114.359,4100.5128,4109.2308,4120.5128,4089.2308,4134.8718,4070.7692,4106.1538
4121.0256,4127.6923,4135.3846,4126.6667,4118.9744,4101.0256,4118.9744,4129.7436,4091.7949,4141.0256,4078.4615,4112.3077
4118.4615,4125.1282,4129.7436,4125.1282,4121.5385,4108.7179,4130.7692,4130.7692,4087.6923,4137.4359,4072.3077,4106.1538
4114.359,4118.9744,4127.1795,4130.2564,4121.5385,4113.8462,4129.2308,4120,4084.1026,4133.8462,4060.5128,4097.9487
4113.3333,4119.4872,4128.7179,4130.2564,4126.6667,4114.8718,4119.4872,4115.8974,4085.641,4134.8718,4058.9744,4096.9231
4116.9231,4125.641,4127.6923,4129.2308,4130.2564,4118.9744,4117.4359,4125.641,4089.2308,4136.9231,4065.641,4104.1026
4120,4125.1282,4126.6667,4132.8205,4123.0769,4116.4103,4120,4128.7179,4087.6923,4134.359,4063.5897,4105.641
4120.5128,4124.6154,4131.7949,4137.9487,4122.0513,4112.3077,4118.4615,4127.6923,4086.6667,4133.8462,4061.5385,4106.6667
4124.6154,4130.2564,4136.4103,4136.4103,4132.3077,4116.4103,4122.5641,4134.359,4092.8205,4141.0256,4069.7436,4120.5128
4122.0513,4130.2564,4132.8205,4125.1282,4130.2564,4118.4615,4124.1026,4129.7436,4094.8718,4139.4872,4068.2051,4124.6154
4112.3077,4120.5128,4125.641,4116.4103,4124.1026,4120,4118.9744,4117.9487,4089.2308,4133.8462,4062.0513,4115.8974
4106.6667,4116.9231,4121.5385,4116.4103,4125.1282,4122.5641,4116.9231,4121.5385,4084.6154,4134.359,4060,4114.359
4110.7692,4125.1282,4126.6667,4122.5641,4124.1026,4120.5128,4117.9487,4129.2308,4086.1538,4135.3846,4056.9231,4119.4872
4117.4359,4125.641,4133.3333,4123.5897,4116.9231,4116.9231,4117.4359,4127.6923,4089.7436,4138.4615,4055.3846,4125.641
4114.359,4121.0256,4129.7436,4118.4615,4115.8974,4116.4103,4115.3846,4124.1026,4087.6923,4136.4103,4052.3077,4123.0769
4116.9231,4122.0513,4126.6667,4116.9231,4124.1026,4117.4359,4121.5385,4129.2308,4091.2821,4136.4103,4054.8718,4122.0513
4124.6154,4123.5897,4129.7436,4114.359,4125.641,4115.8974,4129.2308,4132.3077,4097.9487,4142.0513,4063.0769,4127.6923
4125.641,4124.1026,4132.3077,4115.3846,4124.6154,4114.8718,4125.641,4130.2564,4099.4872,4141.5385,4067.1795,4129.2308
4125.1282,4127.6923,4131.7949,4126.1538,4125.641,4118.4615,4118.9744,4126.6667,4101.5385,4137.9487,4063.5897,4126.6667
4117.9487,4123.5897,4118.9744,4118.9744,4122.5641,4118.9744,4116.9231,4118.9744,4096.9231,4127.6923,4046.6667,4115.8974
4109.2308,4118.9744,4110.2564,4103.5897,4123.0769,4112.3077,4117.4359,4119.4872,4091.7949,4125.641,4041.5385,4111.2821
4111.2821,4121.0256,4123.0769,4110.2564,4126.6667,4105.641,4117.4359,4122.0513,4097.4359,4139.4872,4060,4122.0513
4114.359,4123.0769,4129.7436,4113.3333,4117.9487,4101.5385,4109.7436,4113.8462,4093.3333,4141.0256,4064.6154,4121.5385
4120.5128,4127.1795,4126.1538,4109.2308,4113.8462,4103.5897,4105.1282,4114.359,4086.6667,4138.4615,4057.4359,4113.8462
4126.6667,4127.6923,4128.7179,4113.3333,4123.0769,4108.7179,4108.2051,4125.641,4092.8205,4144.1026,4061.0256,4115.8974
4126.1538,4123.5897,4131.2821,4118.9744,4122.0513,4109.2308,4114.8718,4130.2564,4100,4147.1795,4071.7949,4123.0769
4121.0256,4123.5897,4126.1538,4125.1282,4115.8974,4110.7692,4122.5641,4130.7692,4104.1026,4146.1538,4076.4103,4128.2051
4113.3333,4125.641,4123.0769,4126.1538,4116.9231,4110.7692,4122.5641,4133.8462,4102.5641,4141.0256,4069.7436,4124.1026
4110.7692,4124.1026,4126.6667,4122.5641,4118.9744,4107.1795,4120.5128,4128.2051,4098.4615,4140,4062.0513,4115.8974
4110.7692,4123.0769,4126.6667,4118.4615,4118.9744,4102.0513,4117.9487,4115.8974,4093.8462,4139.4872,4057.4359,4107.6923
4107.1795,4123.0769,4122.0513,4110.7692,4115.3846,4102.0513,4122.0513,4120.5128,4090.2564,4134.8718,4056.9231,4105.1282
4105.641,4121.5385,4120.5128,4102.0513,4111.2821,4106.1538,4127.1795,4129.7436,4092.3077,4134.359,4063.0769,4108.2051
4111.2821,4127.6923,4124.6154,4109.2308,4118.4615,4099.4872,4111.2821,4118.4615,4094.359,4136.9231,4068.2051,4108.7179
4123.5897,4132.3077,4129.7436,4127.1795,4128.2051,4095.8974,4097.4359,4113.3333,4098.4615,4143.0769,4071.7949,4113.8462
4129.2308,4127.6923,4129.7436,4128.7179,4125.1282,4101.0256,4105.641,4126.1538,4101.5385,4146.6667,4075.3846,4122.0513
4126.6667,4126.6667,4128.2051,4123.0769,4125.641,4102.5641,4112.8205,4130.7692,4100,4144.1026,4074.359,4122.0513
4126.1538,4126.6667,4125.1282,4125.1282,4125.641,4099.4872,4111.7949,4127.1795,4098.9744,4143.5897,4075.8974,4116.4103
4123.5897,4124.6154,4121.5385,4124.1026,4122.5641,4099.4872,4121.0256,4128.2051,4097.4359,4142.0513,4077.4359,4114.8718
4117.4359,4123.5897,4121.5385,4122.5641,4124.1026,4105.1282,4130.2564,4127.1795,4094.8718,4141.0256,4072.8205,4118.9744
4110.7692,4124.1026,4117.4359,4116.9231,4120,4104.6154,4119.4872,4120,4087.6923,4140,4063.0769,4110.7692
4115.3846,4123.5897,4121.0256,4112.3077,4121.0256,4107.1795,4116.9231,4124.6154,4087.6923,4143.5897,4067.1795,4110.2564
4124.6154,4121.5385,4131.2821,4125.1282,4127.6923,4116.4103,4132.8205,4129.2308,4095.3846,4147.6923,4075.3846,4123.0769
4116.4103,4119.4872,4123.5897,4125.1282,4117.9487,4117.4359,4132.3077,4119.4872,4088.7179,4138.4615,4065.1282,4114.8718
4112.3077,4124.1026,4119.4872,4110.7692,4108.2051,4112.3077,4123.0769,4118.9744,4086.1538,4140,4063.5897,4110.2564
4124.1026,4128.2051,4132.8205,4116.4103,4117.4359,4111.7949,4123.5897,4125.641,4097.9487,4152.3077,4076.9231,4125.641
4131.2821,4127.6923,4138.4615,4135.8974,4125.641,4114.359,4122.0513,4125.1282,4099.4872,4151.2821,4081.0256,4130.2564
4128.2051,4123.5897,4131.2821,4133.3333,4122.5641,4113.8462,4118.4615,4123.5897,4093.8462,4146.6667,4077.9487,4123.0769
4121.0256,4119.4872,4124.1026,4117.9487,4118.4615,4110.2564,4118.9744,4124.1026,4090.2564,4144.1026,4071.7949,4109.2308
4120.5128,4120,4125.1282,4119.4872,4116.4103,4111.7949,4127.6923,4124.6154,4088.7179,4142.5641,4066.6667,4102.5641
4128.7179,4126.6667,4132.8205,4130.2564,4115.8974,4115.8974,4133.3333,4126.1538,4095.8974,4148.2051,4075.3846,4115.8974
4129.7436,4131.7949,4133.8462,4130.7692,4115.3846,4115.8974,4122.5641,4124.6154,4101.0256,4148.7179,4086.6667,4125.641
4120.5128,4127.1795,4125.1282,4122.0513,4114.359,4116.4103,4108.2051,4120.5128,4093.8462,4139.4872,4080.5128,4115.3846
4110.7692,4118.4615,4115.3846,4113.3333,4111.7949,4114.359,4110.7692,4123.5897,4088.2051,4133.8462,4068.7179,4103.5897
4114.8718,4122.5641,4120.5128,4115.3846,4111.2821,4109.7436,4120.5128,4127.6923,4095.8974,4140.5128,4077.4359,4110.7692
4122.5641,4126.1538,4132.3077,4118.9744,4111.2821,4105.641,4119.4872,4122.0513,4098.4615,4146.6667,4084.6154,4120.5128
4115.8974,4120,4121.0256,4113.3333,4108.2051,4099.4872,4110.2564,4114.359,4086.1538,4136.4103,4064.6154,4107.6923
4114.8718,4124.6154,4111.7949,4115.8974,4116.4103,4097.9487,4108.7179,4110.7692,4086.1538,4138.4615,4057.9487,4104.1026
4125.641,4132.3077,4125.641,4120,4130.7692,4100,4108.7179,4114.359,4095.3846,4152.8205,4076.9231,4120.5128
4124.6154,4125.1282,4129.2308,4111.7949,4127.6923,4102.0513,4109.7436,4124.1026,4090.7692,4148.2051,4082.0513,4121.5385
4113.8462,4118.4615,4114.359,4106.6667,4116.9231,4101.0256,4113.3333,4124.6154,4084.1026,4140.5128,4073.3333,4107.6923
4118.9744,4122.0513,4117.4359,4118.4615,4120.5128,4095.3846,4108.2051,4120,4092.3077,4147.1795,4078.4615,4113.3333
4133.8462,4127.6923,4132.3077,4130.7692,4131.2821,4095.8974,4106.1538,4125.641,4106.1538,4156.4103,4092.8205,4130.7692
4129.2308,4126.1538,4126.1538,4120,4130.2564,4095.8974,4108.2051,4124.6154,4102.5641,4150.7692,4087.1795,4120.5128
4115.8974,4121.5385,4116.4103,4107.6923,4125.1282,4092.3077,4102.5641,4116.9231,4090.7692,4141.5385,4074.8718,4102.0513
4120.5128,4126.6667,4124.1026,4120,4128.2051,4095.8974,4106.1538,4121.0256,4092.3077,4142.5641,4080,4107.6923
4120,4122.5641,4123.5897,4120.5128,4129.2308,4092.8205,4111.2821,4118.9744,4092.8205,4135.3846,4074.8718,4106.1538
4112.8205,4109.7436,4118.9744,4098.9744,4126.1538,4087.1795,4111.7949,4114.8718,4091.2821,4133.8462,4067.1795,4096.9231
4120.5128,4121.0256,4123.0769,4102.0513,4125.641,4091.7949,4119.4872,4125.1282,4093.3333,4142.0513,4080.5128,4101.5385
4125.641,4137.9487,4119.4872,4121.0256,4128.7179,4096.9231,4124.6154,4124.1026,4094.359,4142.0513,4090.7692,4107.6923
4126.6667,4128.2051,4124.6154,4117.4359,4124.6154,4091.2821,4113.3333,4112.8205,4096.9231,4144.6154,4092.3077,4115.3846
4129.2308,4117.9487,4138.4615,4108.2051,4115.3846,4085.641,4099.4872,4113.3333,4095.8974,4147.1795,4092.8205,4119.4872
4129.2308,4126.1538,4133.8462,4115.8974,4111.2821,4084.6154,4098.4615,4118.4615,4094.359,4147.1795,4087.6923,4113.3333
4123.5897,4126.1538,4120,4110.2564,4106.6667,4075.3846,4095.8974,4116.4103,4092.8205,4147.1795,4080,4103.0769
4115.3846,4118.9744,4120.5128,4090.2564,4106.6667,4073.8462,4096.4103,4117.4359,4088.7179,4146.1538,4076.9231,4096.9231
4112.8205,4120,4124.1026,4092.3077,4110.7692,4083.0769,4108.7179,4121.5385,4086.1538,4144.1026,4075.3846,4094.8718
4107.1795,4121.5385,4111.2821,4101.5385,4108.2051,4085.641,4114.359,4120,4083.0769,4136.4103,4068.7179,4087.6923
4110.7692,4120.5128,4111.2821,4098.4615,4107.1795,4090.7692,4116.9231,4125.1282,4089.2308,4140.5128,4072.3077,4094.8718
4130.2564,4124.6154,4132.8205,4100.5128,4115.8974,4098.4615,4117.9487,4129.2308,4104.1026,4156.4103,4088.2051,4118.9744
4139.4872,4131.7949,4140.5128,4115.8974,4117.4359,4101.5385,4112.8205,4125.1282,4106.1538,4158.4615,4098.4615,4131.2821
4129.2308,4128.2051,4124.1026,4116.9231,4107.6923,4103.5897,4110.7692,4120.5128,4096.9231,4149.2308,4089.2308,4122.0513
4123.5897,4121.0256,4119.4872,4097.4359,4104.1026,4100.5128,4107.6923,4114.359,4091.2821,4142.5641,4072.3077,4113.3333
4137.4359,4125.1282,4135.3846,4098.4615,4111.2821,4098.4615,4104.6154,4115.3846,4095.8974,4149.7436,4075.3846,4124.1026
4140,4127.1795,4133.8462,4115.3846,4118.9744,4109.7436,4114.8718,4127.6923,4100,4155.3846,4084.6154,4132.3077
4124.6154,4122.0513,4117.9487,4111.7949,4118.9744,4120,4126.1538,4133.8462,4096.4103,4150.2564,4080,4125.1282
4120.5128,4121.0256,4117.4359,4100,4118.9744,4119.4872,4128.2051,4126.6667,4096.4103,4148.2051,4076.4103,4123.0769
4121.0256,4119.4872,4115.8974,4096.4103,4114.359,4116.9231,4122.0513,4118.4615,4094.8718,4143.5897,4070.7692,4118.4615
4124.1026,4120,4114.8718,4105.1282,4111.2821,4114.359,4114.359,4118.4615,4092.8205,4144.1026,4069.2308,4120
4140,4129.7436,4127.6923,4121.0256,4116.9231,4109.2308,4112.8205,4127.6923,4098.4615,4160.5128,4085.641,4143.5897
4149.2308,4134.359,4138.4615,4130.7692,4116.9231,4106.1538,4113.8462,4133.8462,4100.5128,4167.1795,4092.8205,4154.8718
4151.2821,4131.2821,4143.5897,4129.7436,4110.2564,4108.2051,4115.3846,4127.6923,4098.4615,4163.5897,4087.1795,4149.2308
4146.6667,4123.5897,4139.4872,4118.9744,4108.2051,4111.7949,4120.5128,4122.0513,4095.8974,4158.9744,4083.0769,4144.1026
4129.2308,4117.9487,4120.5128,4101.5385,4111.2821,4117.9487,4126.1538,4120.5128,4089.7436,4148.7179,4071.2821,4131.2821
4116.9231,4120,4109.2308,4095.3846,4111.2821,4121.0256,4118.4615,4116.4103,4085.641,4142.5641,4059.4872,4117.4359
4123.5897,4126.6667,4117.9487,4108.7179,4110.7692,4116.4103,4111.7949,4115.8974,4089.7436,4147.6923,4069.2308,4121.5385
4136.9231,4128.2051,4129.7436,4119.4872,4109.2308,4114.359,4119.4872,4120,4094.8718,4155.8974,4082.5641,4132.3077
4141.0256,4124.6154,4130.7692,4115.8974,4106.6667,4112.8205,4115.3846,4115.8974,4093.8462,4157.4359,4077.4359,4130.2564
4141.5385,4123.5897,4130.7692,4117.9487,4111.7949,4108.7179,4102.0513,4116.4103,4096.4103,4157.9487,4080.5128,4132.8205
4145.641,4128.2051,4134.359,4124.1026,4111.7949,4103.0769,4103.0769,4124.1026,4106.6667,4164.1026,4097.4359,4144.1026
4146.6667,4131.2821,4135.3846,4112.3077,4104.1026,4101.0256,4110.7692,4126.6667,4108.7179,4165.1282,4101.5385,4143.5897
4145.1282,4127.6923,4132.8205,4105.1282,4103.5897,4108.2051,4115.8974,4128.7179,4100.5128,4163.5897,4095.3846,4137.4359
4140,4117.4359,4126.6667,4112.3077,4102.5641,4108.2051,4112.3077,4120,4092.3077,4156.4103,4083.5897,4126.1538
4137.9487,4118.9744,4124.6154,4114.8718,4103.0769,4103.5897,4108.2051,4114.359,4096.4103,4152.3077,4079.4872,4117.4359
4141.5385,4128.2051,4130.2564,4109.7436,4107.6923,4111.2821,4119.4872,4131.2821,4105.1282,4160.5128,4089.7436,4125.641
4135.3846,4121.0256,4129.2308,4101.5385,4101.5385,4109.7436,4124.1026,4134.8718,4097.9487,4157.9487,4089.2308,4124.1026
4136.9231,4118.4615,4131.2821,4106.6667,4097.9487,4101.5385,4113.3333,4121.0256,4094.8718,4154.8718,4089.2308,4116.4103
4149.2308,4130.2564,4139.4872,4121.0256,4107.1795,4106.1538,4108.7179,4121.0256,4103.5897,4160,4103.5897,4124.6154
4140.5128,4129.2308,4132.3077,4115.8974,4109.2308,4110.7692,4117.4359,4128.7179,4101.5385,4156.4103,4104.6154,4127.6923
4123.0769,4116.4103,4121.5385,4094.8718,4101.0256,4103.0769,4117.9487,4123.0769,4094.8718,4149.7436,4089.2308,4115.3846
4121.5385,4118.4615,4117.4359,4091.7949,4100,4095.3846,4099.4872,4112.3077,4093.3333,4146.1538,4080,4105.1282
4128.2051,4125.641,4117.4359,4107.1795,4104.1026,4095.3846,4086.1538,4109.7436,4092.3077,4148.2051,4078.9744,4109.2308
4128.2051,4123.5897,4121.0256,4110.2564,4104.1026,4096.9231,4096.4103,4111.7949,4092.3077,4154.359,4076.9231,4110.2564
4129.7436,4124.6154,4124.6154,4101.0256,4103.0769,4098.9744,4112.3077,4115.3846,4094.8718,4157.9487,4083.0769,4108.2051
4134.8718,4122.5641,4125.1282,4102.0513,4101.5385,4104.1026,4122.0513,4117.9487,4096.4103,4161.5385,4091.7949,4113.3333
4125.641,4116.9231,4117.4359,4107.1795,4100,4098.9744,4116.4103,4116.9231,4089.7436,4154.359,4079.4872,4107.1795
4121.0256,4122.5641,4117.4359,4104.1026,4105.1282,4095.3846,4109.2308,4117.4359,4086.1538,4146.6667,4070.7692,4103.5897
4127.1795,4129.2308,4124.1026,4107.1795,4112.8205,4106.6667,4121.0256,4119.4872,4089.7436,4151.2821,4080.5128,4113.3333
4129.2308,4130.2564,4126.1538,4123.5897,4114.8718,4106.1538,4122.5641,4117.4359,4089.7436,4153.3333,4083.5897,4117.9487
4133.8462,4126.1538,4130.2564,4135.8974,4108.7179,4094.359,4106.1538,4117.9487,4092.8205,4155.3846,4089.7436,4122.5641
4140,4122.0513,4132.3077,4129.2308,4106.1538,4094.8718,4100.5128,4117.9487,4098.9744,4162.5641,4105.1282,4131.2821
4140,4124.6154,4128.7179,4121.0256,4112.3077,4096.9231,4106.6667,4115.8974,4101.5385,4167.1795,4109.7436,4131.2821
4133.8462,4127.1795,4126.6667,4119.4872,4108.2051,4090.7692,4107.6923,4113.3333,4099.4872,4163.0769,4100,4120
4126.6667,4122.0513,4125.1282,4116.4103,4100,4094.8718,4111.7949,4112.3077,4091.2821,4151.2821,4090.7692,4110.7692
4126.1538,4121.0256,4123.5897,4116.9231,4104.1026,4107.1795,4120,4114.8718,4086.1538,4149.2308,4088.2051,4112.3077
4128.7179,4127.1795,4126.1538,4120.5128,4107.1795,4104.1026,4116.9231,4121.0256,4088.7179,4153.8462,4090.2564,4121.5385
4128.2051,4125.1282,4126.1538,4119.4872,4105.1282,4098.9744,4114.8718,4128.2051,4095.3846,4155.8974,4091.2821,4121.5385
4128.7179,4122.5641,4120.5128,4118.9744,4108.2051,4100.5128,4113.8462,4124.6154,4097.9487,4155.3846,4093.8462,4113.3333
4129.7436,4129.7436,4122.5641,4126.1538,4113.3333,4105.641,4112.8205,4117.4359,4096.9231,4155.8974,4103.5897,4113.8462
4137.4359,4135.8974,4133.3333,4140.5128,4111.7949,4116.4103,4122.0513,4122.5641,4104.1026,4164.1026,4117.4359,4127.6923
4140.5128,4132.3077,4132.8205,4137.4359,4104.6154,4115.3846,4118.9744,4120.5128,4103.0769,4161.5385,4111.7949,4126.1538
4130.7692,4127.6923,4126.6667,4118.4615,4102.5641,4105.1282,4108.2051,4111.7949,4094.359,4153.3333,4097.4359,4113.3333
4130.2564,4122.0513,4129.2308,4106.1538,4103.0769,4102.0513,4117.4359,4119.4872,4096.9231,4157.9487,4097.4359,4118.9744
4135.8974,4120,4131.2821,4106.1538,4103.5897,4098.4615,4124.6154,4130.2564,4098.9744,4157.4359,4101.5385,4124.1026
4138.9744,4133.8462,4132.3077,4125.641,4110.2564,4095.8974,4121.0256,4126.6667,4098.9744,4155.3846,4104.1026,4124.1026
4135.8974,4135.8974,4129.2308,4136.9231,4108.2051,4090.7692,4120,4118.4615,4098.4615,4156.9231,4099.4872,4123.0769
4129.7436,4119.4872,4121.0256,4118.9744,4099.4872,4082.0513,4113.3333,4111.7949,4096.4103,4152.3077,4090.7692,4114.359
4132.8205,4124.6154,4124.6154,4113.8462,4109.2308,4090.2564,4109.2308,4111.2821,4100.5128,4157.4359,4101.5385,4118.9744
4136.4103,4136.9231,4130.7692,4126.6667,4118.4615,4102.0513,4113.3333,4117.4359,4103.5897,4164.1026,4114.359,4127.1795
4130.7692,4128.2051,4125.1282,4126.1538,4106.6667,4094.359,4110.2564,4118.9744,4097.9487,4158.9744,4110.2564,4119.4872
4126.6667,4123.0769,4122.0513,4118.4615,4101.5385,4087.6923,4107.6923,4118.4615,4095.8974,4159.4872,4105.641,4109.7436
4134.8718,4136.9231,4129.2308,4124.6154,4109.7436,4097.4359,4119.4872,4126.6667,4100.5128,4166.6667,4110.7692,4115.8974
4138.9744,4136.4103,4130.2564,4125.641,4108.2051,4096.9231,4124.6154,4127.6923,4102.0513,4161.5385,4109.7436,4122.0513
4129.7436,4118.4615,4123.5897,4112.3077,4100,4082.5641,4107.1795,4113.8462,4094.8718,4147.6923,4093.3333,4107.6923
4125.641,4118.4615,4121.5385,4108.7179,4102.0513,4083.0769,4102.0513,4110.7692,4090.2564,4149.7436,4084.1026,4096.4103
4123.0769,4125.641,4112.3077,4113.3333,4101.5385,4093.3333,4112.3077,4115.3846,4091.2821,4148.2051,4090.2564,4093.8462
4117.4359,4121.0256,4103.0769,4109.7436,4092.8205,4098.4615,4107.1795,4110.2564,4089.2308,4134.359,4091.7949,4088.2051
4125.1282,4122.0513,4114.8718,4112.8205,4095.3846,4100,4098.4615,4113.3333,4091.7949,4145.641,4101.0256,4097.4359
4130.7692,4134.359,4122.0513,4125.1282,4105.641,4095.3846,4097.9487,4124.1026,4095.8974,4157.9487,4111.7949,4109.2308
4127.6923,4135.8974,4116.9231,4129.7436,4106.6667,4095.8974,4105.641,4123.0769,4097.4359,4151.7949,4105.1282,4108.7179
4123.5897,4118.9744,4114.359,4120,4101.0256,4105.1282,4112.3077,4115.3846,4096.4103,4147.6923,4093.3333,4101.0256
4115.8974,4116.4103,4106.6667,4109.7436,4103.0769,4104.1026,4110.2564,4117.9487,4090.2564,4143.5897,4091.2821,4091.7949
4120.5128,4130.2564,4112.8205,4113.3333,4110.7692,4100,4107.6923,4120,4091.2821,4144.6154,4098.9744,4097.4359
4131.2821,4134.8718,4128.7179,4121.0256,4110.2564,4106.6667,4108.2051,4116.9231,4095.3846,4149.2308,4103.0769,4107.1795
4129.2308,4127.1795,4125.1282,4124.6154,4112.8205,4120,4111.2821,4124.1026,4096.9231,4149.2308,4104.6154,4108.7179
4117.9487,4120,4115.8974,4120,4115.3846,4121.5385,4111.7949,4126.6667,4096.4103,4142.5641,4098.4615,4106.1538
4110.7692,4122.5641,4113.8462,4110.2564,4110.2564,4113.3333,4109.7436,4118.4615,4090.7692,4134.8718,4085.1282,4099.4872
4112.3077,4127.1795,4113.3333,4109.7436,4112.8205,4115.3846,4115.3846,4120.5128,4090.7692,4141.0256,4083.0769,4099.4872
4112.3077,4120.5128,4110.2564,4109.7436,4118.4615,4118.4615,4121.5385,4124.6154,4093.3333,4146.1538,4082.0513,4103.5897
4110.2564,4116.4103,4110.7692,4107.6923,4109.7436,4113.8462,4120.5128,4120.5128,4092.3077,4143.5897,4078.4615,4104.6154
4111.2821,4124.1026,4112.8205,4109.7436,4099.4872,4113.3333,4121.5385,4119.4872,4093.3333,4145.641,4080.5128,4106.1538
4143.0769,4126.6667,4129.7436,4117.4359,4098.9744,4121.5385,4118.9744,4127.1795,4093.8462,4161.0256,4121.5385,4141.0256
4136.4103,4117.9487,4126.6667,4108.7179,4098.4615,4123.0769,4122.5641,4120.5128,4097.9487,4156.4103,4110.7692,4135.8974
4132.3077,4121.0256,4125.641,4115.8974,4098.9744,4118.4615,4124.6154,4119.4872,4098.4615,4158.4615,4108.7179,4133.3333
4138.4615,4128.2051,4128.2051,4127.6923,4103.5897,4115.3846,4128.2051,4128.2051,4102.5641,4167.1795,4119.4872,4140
4145.1282,4129.7436,4131.2821,4127.1795,4107.6923,4120.5128,4124.1026,4130.2564,4107.1795,4168.7179,4127.1795,4147.1795
4140,4127.1795,4130.2564,4127.6923,4108.2051,4122.0513,4110.7692,4120.5128,4102.0513,4156.4103,4121.5385,4136.4103
4126.1538,4122.0513,4122.5641,4128.7179,4105.641,4118.9744,4105.641,4115.8974,4095.3846,4148.7179,4106.6667,4113.3333
4108.7179,4118.9744,4110.2564,4112.8205,4100.5128,4112.8205,4109.2308,4115.3846,4090.2564,4144.1026,4093.3333,4097.4359
4109.2308,4117.4359,4114.359,4107.1795,4101.0256,4108.7179,4115.3846,4115.3846,4086.6667,4142.0513,4095.3846,4102.5641
4117.9487,4116.9231,4120,4118.4615,4104.6154,4112.8205,4113.8462,4112.8205,4085.641,4142.0513,4096.9231,4106.6667
4114.359,4124.1026,4113.8462,4121.5385,4108.7179,4117.4359,4109.7436,4113.8462,4086.6667,4143.0769,4096.4103,4097.9487
4111.2821,4125.1282,4115.3846,4117.4359,4108.2051,4118.4615,4118.4615,4122.0513,4092.8205,4150.7692,4105.1282,4100.5128
4109.7436,4119.4872,4117.9487,4116.4103,4100.5128,4111.7949,4119.4872,4122.0513,4096.4103,4148.7179,4099.4872,4100.5128
4111.2821,4123.5897,4114.8718,4119.4872,4101.0256,4106.1538,4108.7179,4117.9487,4093.8462,4146.6667,4089.2308,4096.4103
4113.3333,4127.6923,4115.8974,4125.641,4102.5641,4106.1538,4103.5897,4118.4615,4093.8462,4151.2821,4096.4103,4102.0513
4112.3077,4122.5641,4117.4359,4122.0513,4101.0256,4106.6667,4104.1026,4117.9487,4096.4103,4146.1538,4101.5385,4104.6154
4117.9487,4123.0769,4114.8718,4120,4104.1026,4111.7949,4106.6667,4113.8462,4097.4359,4142.5641,4096.9231,4098.9744
4123.0769,4130.2564,4111.2821,4125.641,4104.1026,4114.359,4106.1538,4110.2564,4092.3077,4142.5641,4097.9487,4092.8205
4121.5385,4129.2308,4112.3077,4128.2051,4103.5897,4113.3333,4107.6923,4117.9487,4091.2821,4142.5641,4105.1282,4094.8718
4120.5128,4121.5385,4115.3846,4126.1538,4103.5897,4114.8718,4111.2821,4121.5385,4095.3846,4144.1026,4104.1026,4096.9231
4116.4103,4120,4114.8718,4125.1282,4100.5128,4114.359,4107.1795,4113.8462,4093.3333,4142.0513,4096.4103,4090.7692
4113.3333,4124.6154,4111.2821,4124.6154,4100.5128,4111.2821,4105.641,4113.8462,4091.2821,4143.5897,4096.9231,4089.2308
4116.4103,4124.6154,4110.2564,4122.0513,4105.641,4113.3333,4107.6923,4117.4359,4089.2308,4142.0513,4098.9744,4088.2051
4119.4872,4123.5897,4111.7949,4119.4872,4106.1538,4123.5897,4110.2564,4114.8718,4086.1538,4137.9487,4097.9487,4083.0769
4117.4359,4127.6923,4111.2821,4118.4615,4099.4872,4122.0513,4113.3333,4113.8462,4089.2308,4142.0513,4103.5897,4084.6154
4116.4103,4132.3077,4118.9744,4123.0769,4101.0256,4112.3077,4117.4359,4118.9744,4095.8974,4150.7692,4115.8974,4093.8462
4123.5897,4129.7436,4128.2051,4131.7949,4108.2051,4116.9231,4114.8718,4115.8974,4098.4615,4152.8205,4124.6154,4099.4872
4123.5897,4119.4872,4122.5641,4122.0513,4101.0256,4117.9487,4107.1795,4109.2308,4094.359,4147.6923,4116.9231,4092.3077
4125.1282,4120,4122.5641,4112.3077,4093.8462,4111.7949,4112.8205,4112.3077,4092.8205,4150.2564,4112.3077,4091.2821
4133.8462,4130.7692,4128.7179,4121.0256,4102.5641,4113.8462,4112.8205,4112.3077,4095.8974,4158.4615,4123.0769,4101.5385
4125.1282,4128.7179,4116.4103,4119.4872,4105.641,4110.2564,4096.9231,4106.1538,4092.3077,4149.7436,4122.0513,4094.8718
4116.4103,4118.9744,4109.7436,4107.6923,4100,4107.1795,4102.5641,4112.8205,4090.7692,4145.641,4115.8974,4087.1795
4125.1282,4121.0256,4120.5128,4108.2051,4103.0769,4112.8205,4121.5385,4122.0513,4093.8462,4153.8462,4123.0769,4094.359
4129.2308,4128.7179,4122.0513,4117.9487,4108.7179,4112.3077,4116.4103,4119.4872,4095.3846,4153.3333,4123.5897,4096.4103
4128.2051,4127.6923,4122.5641,4122.5641,4106.1538,4109.7436,4108.2051,4115.8974,4097.9487,4154.8718,4118.9744,4096.4103
4128.2051,4120,4126.1538,4115.3846,4101.0256,4111.7949,4110.7692,4111.7949,4094.8718,4154.8718,4116.9231,4097.9487
4122.5641,4117.9487,4117.9487,4104.6154,4102.5641,4118.4615,4115.8974,4112.8205,4092.3077,4149.7436,4122.0513,4095.8974
4121.0256,4122.5641,4115.3846,4107.1795,4107.1795,4125.1282,4122.0513,4120,4095.8974,4150.2564,4128.7179,4093.3333
4123.0769,4120,4118.4615,4110.2564,4104.6154,4125.641,4122.5641,4120,4095.8974,4147.6923,4121.0256,4087.6923
4117.4359,4113.3333,4110.2564,4103.5897,4100,4122.5641,4112.8205,4110.2564,4092.8205,4144.1026,4112.8205,4085.1282
4110.2564,4120.5128,4103.0769,4097.9487,4101.0256,4114.8718,4096.4103,4105.1282,4093.8462,4144.1026,4115.3846,4089.7436
4114.359,4128.2051,4111.7949,4102.5641,4103.0769,4107.1795,4091.2821,4106.1538,4095.3846,4144.1026,4114.8718,4088.7179
4118.4615,4123.0769,4116.9231,4103.5897,4098.9744,4106.1538,4091.7949,4101.5385,4092.8205,4140,4109.2308,4081.5385
4118.4615,4121.5385,4111.7949,4100,4098.4615,4111.7949,4096.4103,4103.5897,4098.9744,4141.0256,4119.4872,4089.2308
4128.2051,4124.1026,4120,4109.2308,4100,4118.4615,4110.7692,4117.4359,4114.359,4153.8462,4138.4615,4110.2564
4134.359,4122.5641,4129.7436,4112.3077,4099.4872,4116.9231,4114.8718,4123.0769,4116.4103,4156.4103,4143.0769,4113.8462
4136.4103,4124.1026,4128.7179,4108.2051,4103.0769,4116.9231,4115.3846,4121.5385,4114.359,4153.8462,4145.641,4112.3077
4135.8974,4125.641,4127.6923,4113.3333,4105.1282,4118.9744,4123.0769,4123.0769,4117.4359,4155.3846,4144.1026,4109.7436
4124.1026,4121.0256,4122.0513,4113.8462,4102.0513,4115.3846,4121.5385,4118.9744,4108.7179,4146.1538,4126.1538,4094.359
4122.0513,4119.4872,4116.4103,4107.1795,4103.5897,4114.359,4114.8718,4112.3077,4102.5641,4143.0769,4123.0769,4092.8205
4134.359,4122.5641,4122.0513,4108.7179,4103.5897,4115.3846,4115.3846,4115.8974,4108.7179,4151.2821,4137.9487,4104.1026
4140,4127.1795,4131.2821,4119.4872,4100,4107.1795,4110.7692,4117.4359,4109.2308,4156.4103,4141.0256,4105.1282
4132.3077,4125.1282,4123.0769,4117.9487,4095.8974,4103.0769,4102.5641,4109.2308,4103.0769,4150.7692,4127.1795,4096.4103
4120.5128,4118.4615,4110.7692,4109.2308,4095.3846,4110.7692,4107.1795,4110.2564,4105.1282,4142.0513,4115.8974,4088.7179
4120.5128,4121.0256,4118.4615,4112.3077,4098.9744,4112.3077,4115.8974,4122.0513,4109.7436,4149.7436,4116.4103,4093.8462
4118.4615,4124.6154,4118.9744,4111.2821,4098.4615,4104.1026,4109.2308,4120,4103.5897,4152.8205,4110.2564,4093.3333
4109.2308,4116.9231,4109.2308,4103.5897,4096.4103,4106.6667,4107.1795,4118.4615,4100,4142.0513,4099.4872,4082.0513
4110.2564,4113.3333,4112.8205,4103.5897,4100,4113.8462,4113.8462,4125.1282,4105.1282,4143.0769,4104.1026,4082.0513
4117.4359,4120,4118.9744,4107.1795,4101.5385,4110.2564,4109.7436,4123.0769,4103.5897,4150.2564,4109.2308,4088.2051
4117.4359,4121.0256,4115.8974,4104.6154,4097.4359,4113.8462,4108.2051,4121.0256,4102.5641,4151.2821,4106.6667,4087.1795
4106.1538,4115.8974,4110.2564,4094.8718,4093.8462,4119.4872,4115.3846,4118.9744,4105.1282,4144.6154,4102.5641,4083.0769
4110.2564,4121.5385,4115.3846,4100,4096.4103,4116.9231,4113.8462,4112.8205,4106.1538,4145.1282,4107.6923,4094.359
4128.2051,4128.7179,4127.6923,4115.3846,4100.5128,4113.8462,4099.4872,4108.7179,4106.6667,4154.359,4113.8462,4111.2821
4129.7436,4123.0769,4128.2051,4114.8718,4103.0769,4110.2564,4091.7949,4110.2564,4104.6154,4152.8205,4107.6923,4110.7692
4128.7179,4119.4872,4124.1026,4112.3077,4107.6923,4116.4103,4106.1538,4115.3846,4106.6667,4152.3077,4112.3077,4114.8718
4130.2564,4122.5641,4127.6923,4116.4103,4102.5641,4124.6154,4113.8462,4118.4615,4107.6923,4154.8718,4116.9231,4124.6154
4128.7179,4124.6154,4130.7692,4120.5128,4096.9231,4124.6154,4110.2564,4117.4359,4104.6154,4152.8205,4107.6923,4120
4129.7436,4121.5385,4123.5897,4118.9744,4101.0256,4125.641,4113.8462,4117.9487,4106.6667,4152.3077,4106.6667,4113.3333
4128.2051,4120.5128,4115.8974,4110.2564,4103.0769,4129.7436,4115.3846,4120.5128,4106.1538,4147.6923,4107.6923,4113.3333
4126.1538,4123.0769,4118.4615,4107.1795,4102.0513,4131.2821,4114.8718,4122.5641,4106.1538,4147.1795,4103.0769,4116.9231
4125.641,4123.5897,4120,4107.1795,4101.5385,4127.6923,4121.0256,4121.5385,4107.6923,4145.1282,4097.4359,4112.3077
4123.5897,4122.0513,4115.8974,4105.1282,4102.5641,4124.6154,4121.0256,4116.9231,4104.6154,4139.4872,4100,4106.1538
4127.1795,4123.0769,4121.5385,4111.2821,4100.5128,4125.1282,4114.8718,4113.8462,4104.6154,4147.6923,4107.1795,4113.8462
4130.7692,4124.6154,4127.6923,4116.9231,4100,4123.5897,4111.2821,4111.2821,4109.2308,4154.8718,4109.2308,4118.9744
4133.3333,4128.2051,4128.2051,4118.4615,4105.641,4124.1026,4112.3077,4113.3333,4112.8205,4152.3077,4115.3846,4119.4872
4142.5641,4128.7179,4132.3077,4124.6154,4109.2308,4127.1795,4119.4872,4121.0256,4113.3333,4152.3077,4127.1795,4126.6667
4145.1282,4124.1026,4131.2821,4123.5897,4103.0769,4130.2564,4130.7692,4127.6923,4112.8205,4154.359,4130.2564,4126.6667
4135.3846,4116.9231,4122.5641,4108.2051,4095.8974,4133.3333,4132.8205,4130.7692,4113.8462,4152.8205,4124.1026,4118.9744
4126.6667,4118.4615,4118.4615,4097.9487,4099.4872,4132.3077,4128.2051,4129.7436,4111.7949,4147.1795,4121.0256,4112.3077
4128.7179,4127.1795,4120.5128,4105.1282,4108.7179,4130.2564,4127.6923,4126.1538,4109.7436,4147.1795,4123.5897,4109.7436
4129.2308,4126.6667,4118.4615,4113.8462,4105.641,4125.641,4118.4615,4120.5128,4110.7692,4154.359,4126.1538,4112.8205
4126.1538,4120,4114.8718,4115.3846,4094.359,4122.5641,4112.8205,4115.3846,4111.2821,4152.8205,4125.1282,4114.8718
4135.3846,4124.1026,4123.0769,4121.0256,4093.3333,4127.1795,4131.2821,4114.8718,4112.8205,4153.3333,4129.2308,4118.4615
4145.1282,4130.2564,4129.2308,4126.6667,4102.5641,4124.1026,4135.8974,4120,4115.3846,4158.4615,4135.8974,4121.0256
4142.0513,4127.1795,4127.1795,4120.5128,4104.6154,4120,4121.5385,4123.5897,4115.3846,4158.9744,4134.8718,4122.5641
4138.4615,4122.5641,4127.1795,4115.3846,4100.5128,4127.1795,4120,4118.4615,4113.8462,4154.8718,4129.2308,4123.5897
4132.3077,4122.5641,4123.5897,4110.7692,4101.0256,4129.2308,4120.5128,4117.4359,4111.7949,4151.7949,4129.2308,4118.4615
4129.2308,4122.5641,4119.4872,4106.1538,4102.0513,4121.5385,4117.4359,4123.5897,4112.3077,4155.8974,4133.3333,4116.4103
4133.3333,4124.6154,4120.5128,4112.8205,4099.4872,4119.4872,4120.5128,4121.5385,4110.7692,4155.8974,4127.1795,4114.359
4136.4103,4129.2308,4121.0256,4122.5641,4102.0513,4128.2051,4124.6154,4121.0256,4110.2564,4152.3077,4124.1026,4112.8205
4133.8462,4127.1795,4117.4359,4122.0513,4104.6154,4132.3077,4126.1538,4124.6154,4113.3333,4153.3333,4131.2821,4113.3333
4131.2821,4123.5897,4114.8718,4119.4872,4102.5641,4125.641,4122.5641,4118.9744,4111.2821,4154.359,4128.7179,4110.2564
4137.9487,4129.2308,4117.4359,4126.6667,4104.1026,4124.1026,4122.0513,4119.4872,4112.3077,4157.4359,4127.6923,4115.3846
4142.0513,4133.8462,4117.4359,4124.6154,4104.1026,4129.2308,4129.7436,4125.641,4112.8205,4155.3846,4135.8974,4124.1026
4147.1795,4134.359,4124.6154,4120,4102.5641,4126.1538,4125.641,4117.9487,4109.2308,4156.9231,4142.5641,4134.8718
4160.5128,4133.8462,4132.3077,4131.2821,4099.4872,4116.9231,4109.7436,4107.1795,4106.6667,4166.1538,4144.6154,4145.641
4171.2821,4114.8718,4157.4359,3930.7692,4034.8718,4151.2821,4166.6667,4161.5385,4132.3077,4157.4359,4091.7949,4096.4103
4164.6154,4112.3077,4158.9744,3934.359,4006.6667,4144.1026,4164.6154,4159.4872,4126.1538,4153.8462,4083.5897,4088.7179
4165.1282,4161.5385,4145.1282,3932.8205,4023.5897,4150.7692,4165.1282,4157.4359,4130.7692,4155.8974,4087.1795,4093.8462
4169.2308,4146.1538,4140,3928.2051,4045.641,4155.3846,4168.7179,4157.9487,4134.8718,4160,4095.8974,4089.7436
4156.4103,4096.4103,4145.641,3940,4025.1282,4148.2051,4166.1538,4155.3846,4127.1795,4149.7436,4087.1795,4068.7179
4160.5128,4126.1538,4153.8462,3961.0256,4024.1026,4150.7692,4168.7179,4158.9744,4128.2051,4150.2564,4085.641,4074.8718
4177.9487,4161.0256,4157.4359,3957.9487,4040.5128,4156.9231,4173.8462,4165.641,4132.8205,4159.4872,4092.8205,4089.2308
4172.8205,4130.7692,4151.7949,3954.8718,4031.2821,4153.3333,4174.359,4166.6667,4132.8205,4156.4103,4092.3077,4082.5641
4156.9231,4118.9744,4143.0769,3969.7436,4034.359,4153.3333,4174.359,4164.1026,4127.6923,4148.2051,4088.2051,4068.7179
4154.8718,4138.9744,4144.1026,3971.2821,4058.4615,4164.1026,4173.8462,4162.5641,4122.0513,4149.7436,4088.7179,4065.1282
4163.5897,4135.3846,4151.7949,3968.7179,4060,4166.1538,4168.2051,4162.0513,4133.3333,4160.5128,4096.4103,4072.3077
4152.3077,4128.2051,4148.7179,3977.9487,4044.1026,4154.359,4162.5641,4157.4359,4138.9744,4155.8974,4086.6667,4061.5385
4144.6154,4140.5128,4144.1026,3987.6923,4045.641,4153.8462,4167.1795,4157.9487,4127.6923,4150.7692,4074.359,4046.6667
4158.9744,4141.5385,4148.7179,3988.2051,4055.3846,4157.9487,4168.2051,4161.5385,4124.6154,4165.1282,4090.7692,4055.8974
4151.2821,4126.6667,4147.6923,3976.9231,4049.2308,4150.2564,4161.5385,4162.0513,4130.7692,4167.6923,4100.5128,4052.8205
4138.4615,4134.8718,4146.6667,3973.8462,4042.0513,4146.6667,4163.5897,4164.1026,4130.2564,4164.1026,4099.4872,4048.7179
4151.7949,4156.4103,4150.7692,3993.3333,4054.359,4153.3333,4167.6923,4161.0256,4126.1538,4169.2308,4107.6923,4064.6154
4155.8974,4135.3846,4156.4103,4011.2821,4061.5385,4156.4103,4169.2308,4161.0256,4133.3333,4168.2051,4108.2051,4063.0769
4143.0769,4114.359,4162.5641,4006.1538,4040,4152.8205,4173.3333,4166.1538,4134.359,4158.4615,4096.9231,4045.1282
4137.9487,4144.6154,4154.359,4000.5128,4027.6923,4147.1795,4165.641,4158.4615,4127.6923,4147.6923,4091.7949,4037.9487
4136.9231,4150.2564,4142.5641,4004.1026,4029.7436,4145.641,4160.5128,4149.7436,4129.2308,4142.5641,4095.3846,4034.359
4131.7949,4125.641,4140,4005.641,4027.6923,4147.6923,4168.7179,4157.9487,4124.6154,4136.9231,4093.3333,4029.2308
4142.5641,4134.8718,4149.7436,4019.4872,4022.5641,4150.2564,4169.7436,4163.5897,4125.1282,4142.0513,4093.8462,4040
4152.8205,4136.9231,4159.4872,4033.3333,4007.1795,4141.5385,4151.7949,4151.2821,4137.4359,4154.8718,4101.5385,4047.6923
4142.0513,4123.0769,4153.8462,4035.3846,3996.9231,4128.7179,4137.9487,4143.0769,4130.2564,4146.6667,4106.6667,4038.9744
4137.9487,4149.7436,4146.1538,4039.4872,4007.6923,4134.8718,4148.7179,4152.8205,4118.9744,4136.9231,4111.2821,4045.641
4139.4872,4158.4615,4144.1026,4036.9231,4017.9487,4145.641,4154.8718,4154.8718,4129.2308,4143.5897,4110.2564,4050.2564
4143.0769,4120.5128,4152.8205,4037.4359,3997.9487,4142.5641,4148.2051,4151.2821,4136.4103,4149.7436,4113.8462,4044.6154
4149.2308,4113.3333,4156.9231,4050.7692,3976.4103,4139.4872,4151.7949,4156.9231,4127.6923,4145.641,4117.4359,4048.2051
4139.4872,4142.5641,4142.5641,4046.6667,3987.1795,4141.0256,4155.8974,4160.5128,4125.641,4141.5385,4116.4103,4055.8974
4135.3846,4146.6667,4141.5385,4046.1538,4008.2051,4144.6154,4154.8718,4158.9744,4133.8462,4149.2308,4123.5897,4068.2051
4142.5641,4127.1795,4157.4359,4069.7436,3996.4103,4149.7436,4161.5385,4156.4103,4130.7692,4148.2051,4117.9487,4064.1026
4140.5128,4132.3077,4153.8462,4068.2051,3983.5897,4153.8462,4169.7436,4156.9231,4123.5897,4140.5128,4109.7436,4058.4615
4130.7692,4147.6923,4133.3333,4044.6154,4005.641,4154.8718,4168.7179,4158.9744,4128.7179,4145.641,4108.7179,4066.1538
4122.5641,4125.641,4134.359,4038.4615,4007.6923,4146.1538,4163.0769,4155.8974,4128.7179,4145.641,4095.8974,4063.0769
4131.7949,4110.7692,4152.3077,4048.2051,3983.5897,4136.4103,4163.0769,4154.359,4126.1538,4147.1795,4106.6667,4072.3077
4141.0256,4136.4103,4149.2308,4052.8205,3977.9487,4128.7179,4152.3077,4152.3077,4127.1795,4149.7436,4123.0769,4083.0769
4130.2564,4146.6667,4136.9231,4054.8718,3987.6923,4124.1026,4138.4615,4149.2308,4126.6667,4142.0513,4099.4872,4065.1282
4125.641,4128.7179,4145.641,4064.6154,3995.8974,4129.7436,4144.6154,4153.3333,4128.7179,4147.1795,4089.2308,4063.0769
4128.7179,4121.5385,4151.7949,4073.3333,3983.5897,4129.2308,4154.359,4159.4872,4127.1795,4151.2821,4111.7949,4076.4103
4121.0256,4135.3846,4137.4359,4074.8718,3970.7692,4124.6154,4156.9231,4155.8974,4125.1282,4139.4872,4112.8205,4064.6154
4113.3333,4148.2051,4127.1795,4075.3846,3982.5641,4131.2821,4158.4615,4154.359,4129.2308,4135.8974,4100.5128,4055.8974
4118.9744,4144.1026,4131.7949,4079.4872,3996.9231,4140.5128,4162.0513,4161.5385,4129.2308,4141.5385,4109.2308,4071.2821
4121.0256,4125.1282,4136.9231,4090.7692,3986.6667,4139.4872,4165.641,4161.5385,4124.6154,4140.5128,4118.9744,4076.4103
4110.7692,4121.0256,4137.4359,4100,3978.4615,4134.359,4164.6154,4152.8205,4125.1282,4133.3333,4112.3077,4068.2051
4108.2051,4136.9231,4137.4359,4095.3846,3984.6154,4142.5641,4169.2308,4157.4359,4127.6923,4132.8205,4103.5897,4073.8462
4113.8462,4141.5385,4134.8718,4084.1026,3977.4359,4146.1538,4170.2564,4161.0256,4126.1538,4134.8718,4106.1538,4089.7436
4110.2564,4133.8462,4130.2564,4087.6923,3980,4133.8462,4157.4359,4156.4103,4126.6667,4135.8974,4112.3077,4094.8718
4105.1282,4117.4359,4134.359,4106.6667,3990.2564,4130.7692,4153.8462,4157.4359,4127.6923,4136.4103,4106.1538,4087.6923
4103.0769,4117.4359,4130.2564,4102.0513,3982.5641,4134.359,4155.8974,4155.8974,4122.0513,4126.6667,4092.8205,4079.4872
4108.2051,4143.0769,4124.1026,4088.2051,3986.6667,4134.8718,4154.8718,4158.4615,4123.0769,4131.7949,4107.6923,4093.8462
4125.1282,4144.6154,4137.9487,4107.6923,3997.9487,4133.3333,4155.8974,4166.1538,4130.2564,4152.3077,4133.3333,4113.8462
4126.1538,4128.7179,4141.5385,4120.5128,3988.7179,4129.2308,4150.7692,4160,4125.641,4147.6923,4122.0513,4113.3333
4111.7949,4141.5385,4124.1026,4107.1795,3982.0513,4125.641,4145.641,4153.3333,4121.0256,4137.9487,4105.1282,4117.4359
4109.7436,4141.5385,4119.4872,4101.0256,3990.2564,4127.1795,4149.2308,4158.4615,4121.5385,4145.641,4113.8462,4131.7949
4118.9744,4114.8718,4134.8718,4114.359,3993.8462,4133.3333,4153.8462,4163.5897,4124.1026,4152.8205,4121.5385,4141.0256
4122.0513,4120,4138.9744,4126.6667,3988.7179,4134.359,4154.8718,4163.5897,4130.2564,4157.4359,4122.0513,4152.3077
