"AF3","F7","F3","FC5","T7","P7","O1","O2","FC6","F4","F8","AF4"
4112.3077,4116.4103,4078.9744,4037.9487,4116.9231,4102.5641,4095.8974,4068.7179,4237.4359,4032.3077,4328.7179,4085.1282
4078.9744,4107.1795,4075.8974,4021.0256,4112.3077,4110.2564,4088.2051,4054.8718,4222.5641,4029.2308,4309.2308,4065.641
4048.7179,4108.2051,4082.5641,4030.7692,4121.0256,4106.6667,4086.1538,4046.1538,4289.2308,3975.8974,4325.641,4037.4359
4057.9487,4105.641,4085.1282,4037.9487,4098.9744,4092.8205,4084.6154,4069.2308,4231.2821,4008.7179,4308.2051,4058.4615
4081.5385,4111.2821,4105.641,4037.9487,4104.1026,4091.2821,4093.3333,4077.4359,4213.8462,4087.1795,4323.5897,4099.4872
4080,4112.3077,4118.4615,4039.4872,4153.3333,4113.3333,4101.5385,4066.1538,4343.0769,4067.1795,4330.7692,4095.3846
4053.8462,4099.4872,4094.8718,4032.3077,4133.3333,4113.3333,4081.5385,4054.8718,4366.6667,3991.7949,4283.0769,4067.1795
4052.8205,4105.641,4087.6923,4039.4872,4089.2308,4087.1795,4072.8205,4058.9744,4257.4359,4023.0769,4272.8205,4077.9487
4087.1795,4124.6154,4127.6923,4068.2051,4137.9487,4100,4108.2051,4074.359,4255.3846,4096.9231,4343.0769,4095.8974
4075.8974,4114.359,4125.1282,4059.4872,4151.7949,4124.6154,4111.7949,4072.3077,4302.5641,4050.2564,4364.1026,4065.641
4016.4103,4093.8462,4078.4615,4023.5897,4078.9744,4106.6667,4072.8205,4058.9744,4261.5385,3993.3333,4279.4872,4045.1282
4031.2821,4106.1538,4100.5128,4040,4111.2821,4100,4084.6154,4074.8718,4269.2308,4026.1538,4286.1538,4067.6923
4081.5385,4123.0769,4141.5385,4068.7179,4186.1538,4119.4872,4117.4359,4088.2051,4320.5128,4055.8974,4344.6154,4095.8974
4061.0256,4112.3077,4122.0513,4047.1795,4132.3077,4110.2564,4102.0513,4083.0769,4313.8462,4072.8205,4287.6923,4118.9744
4022.5641,4102.0513,4097.9487,4020,4089.7436,4095.8974,4086.6667,4076.9231,4281.0256,4079.4872,4241.0256,4103.5897
4012.3077,4109.2308,4102.5641,4022.5641,4129.7436,4105.1282,4093.3333,4066.6667,4263.5897,4026.1538,4286.1538,4062.5641
4007.1795,4113.8462,4105.641,4026.6667,4109.2308,4107.6923,4096.9231,4063.0769,4238.9744,3997.9487,4294.359,4047.6923
3998.9744,4109.7436,4094.359,4024.1026,4085.1282,4117.4359,4102.5641,4062.5641,4243.0769,4043.0769,4262.0513,4052.8205
3991.7949,4111.7949,4100.5128,4029.2308,4135.8974,4128.2051,4113.3333,4088.2051,4282.0513,4062.0513,4271.7949,4069.7436
3990.7692,4116.9231,4116.9231,4029.2308,4148.2051,4109.2308,4111.7949,4106.1538,4267.6923,4033.3333,4281.5385,4091.2821
4002.5641,4117.9487,4113.8462,4024.6154,4116.4103,4099.4872,4103.0769,4073.3333,4247.6923,4024.6154,4273.3333,4094.8718
3989.7436,4112.3077,4093.3333,4021.0256,4114.359,4118.4615,4097.4359,4055.8974,4276.4103,4030.2564,4253.8462,4066.1538
3976.4103,4117.4359,4109.2308,4021.5385,4136.4103,4126.1538,4102.5641,4086.1538,4282.0513,4046.1538,4241.5385,4068.2051
3991.7949,4123.0769,4136.9231,4024.1026,4146.6667,4120,4110.7692,4097.4359,4270.7692,4052.3077,4258.4615,4097.4359
3981.5385,4114.8718,4121.5385,4020.5128,4125.641,4111.2821,4101.5385,4080.5128,4270.2564,4056.9231,4250.7692,4087.1795
3966.6667,4116.9231,4114.359,4023.0769,4125.1282,4114.8718,4098.4615,4088.7179,4276.9231,4084.1026,4227.6923,4066.6667
3966.1538,4120.5128,4120.5128,4019.4872,4121.0256,4118.4615,4097.9487,4074.8718,4282.5641,4054.8718,4227.6923,4062.5641
3958.9744,4116.9231,4107.6923,4004.1026,4073.8462,4096.9231,4088.2051,4056.4103,4281.0256,4027.6923,4206.1538,4078.9744
3963.5897,4118.4615,4111.2821,4006.1538,4086.1538,4094.359,4095.8974,4085.641,4274.8718,4074.8718,4197.4359,4104.6154
3970.7692,4121.0256,4126.6667,4024.1026,4140.5128,4122.0513,4114.359,4098.4615,4296.4103,4080,4231.7949,4102.5641
3953.8462,4116.4103,4120,4020,4135.3846,4131.2821,4112.3077,4080.5128,4311.7949,4041.5385,4232.3077,4077.9487
3939.4872,4113.3333,4110.2564,4010.2564,4099.4872,4113.3333,4101.0256,4080.5128,4284.1026,4072.3077,4202.5641,4090.7692
3946.1538,4118.4615,4117.9487,4022.0513,4084.1026,4098.4615,4104.1026,4094.8718,4251.7949,4094.8718,4208.7179,4110.2564
3945.1282,4119.4872,4120,4024.6154,4102.5641,4108.7179,4109.7436,4092.3077,4256.9231,4046.1538,4238.4615,4089.7436
3939.4872,4117.9487,4117.9487,4017.9487,4141.0256,4126.1538,4109.7436,4091.2821,4314.359,4046.1538,4240.5128,4088.7179
3926.6667,4121.0256,4113.3333,4018.4615,4150.7692,4124.6154,4108.7179,4102.0513,4338.9744,4077.4359,4208.7179,4102.5641
3909.7436,4120,4108.7179,4010.7692,4114.359,4110.7692,4111.7949,4101.0256,4281.0256,4073.3333,4187.1795,4097.9487
3908.2051,4115.3846,4118.4615,4005.1282,4092.8205,4112.3077,4115.8974,4093.3333,4253.8462,4075.3846,4175.8974,4103.5897
3899.4872,4112.8205,4124.1026,4013.8462,4112.3077,4125.1282,4113.3333,4097.9487,4263.5897,4093.8462,4152.3077,4109.2308
3897.4359,4117.4359,4124.1026,4026.6667,4124.1026,4121.0256,4111.2821,4108.7179,4276.4103,4094.8718,4164.6154,4110.2564
3906.1538,4114.8718,4117.9487,4023.0769,4085.1282,4103.5897,4105.641,4095.3846,4289.2308,4069.2308,4194.359,4105.641
3893.8462,4108.7179,4102.5641,4006.6667,4075.3846,4110.7692,4100,4084.6154,4273.3333,4050.7692,4174.359,4088.2051
3893.8462,4122.0513,4116.9231,4016.9231,4147.1795,4131.7949,4115.8974,4113.3333,4277.4359,4075.8974,4167.1795,4100.5128
3912.3077,4127.6923,4142.5641,4038.9744,4140.5128,4116.4103,4126.6667,4130.7692,4318.4615,4114.359,4189.7436,4131.7949
3905.641,4110.7692,4133.8462,4031.7949,4068.2051,4098.4615,4113.8462,4111.7949,4314.359,4110.2564,4174.359,4125.1282
3897.4359,4117.4359,4131.2821,4023.5897,4098.9744,4123.0769,4117.9487,4114.359,4308.7179,4094.359,4155.3846,4122.5641
3898.4615,4126.6667,4133.8462,4030.7692,4130.2564,4136.9231,4128.2051,4128.7179,4308.7179,4094.359,4149.2308,4123.0769
3884.6154,4114.8718,4126.1538,4027.1795,4091.7949,4118.9744,4117.4359,4121.5385,4263.0769,4094.359,4136.4103,4103.0769
3885.1282,4118.9744,4141.0256,4027.6923,4089.7436,4108.7179,4114.359,4121.0256,4270.7692,4102.5641,4148.7179,4120.5128
3894.359,4125.641,4150.7692,4034.8718,4120.5128,4114.8718,4120,4119.4872,4328.7179,4104.1026,4169.2308,4145.1282
3892.3077,4120.5128,4135.8974,4030.7692,4142.0513,4133.3333,4124.1026,4112.3077,4316.9231,4097.9487,4152.3077,4124.1026
3890.2564,4119.4872,4134.8718,4033.3333,4105.1282,4125.1282,4125.1282,4121.5385,4273.3333,4104.6154,4120.5128,4112.3077
3877.4359,4118.4615,4132.3077,4033.3333,4046.6667,4096.9231,4113.8462,4123.5897,4274.8718,4103.5897,4108.2051,4114.8718
3865.641,4118.9744,4123.5897,4023.0769,4082.0513,4115.8974,4116.9231,4122.0513,4291.7949,4095.3846,4118.4615,4098.9744
3882.0513,4126.6667,4140,4033.3333,4155.8974,4154.359,4140,4140,4297.4359,4108.2051,4144.6154,4104.1026
3875.8974,4126.1538,4139.4872,4033.8462,4100.5128,4131.7949,4133.8462,4134.359,4283.0769,4109.2308,4136.9231,4113.8462
3875.8974,4126.1538,4139.4872,4033.8462,4100.5128,4131.7949,4133.8462,4134.359,4283.0769,4109.2308,4136.9231,4113.8462
3839.4872,4116.9231,4108.7179,4005.641,4024.6154,4101.5385,4106.1538,4104.6154,4259.4872,4082.0513,4094.8718,4088.2051
3845.1282,4124.6154,4114.359,4003.0769,4084.1026,4124.6154,4112.8205,4117.9487,4268.7179,4085.641,4098.4615,4082.5641
3889.2308,4143.5897,4146.6667,4036.4103,4143.5897,4136.4103,4140,4151.2821,4287.6923,4127.6923,4146.6667,4126.1538
3909.2308,4143.5897,4156.9231,4045.1282,4110.7692,4127.1795,4140.5128,4141.0256,4290.2564,4146.1538,4163.0769,4150.2564
3869.7436,4126.1538,4147.1795,4022.5641,4061.5385,4123.0769,4119.4872,4111.7949,4281.0256,4117.9487,4126.1538,4116.4103
3841.0256,4121.5385,4148.7179,4022.0513,4077.9487,4120.5128,4117.4359,4124.6154,4288.2051,4112.8205,4110.2564,4100.5128
3884.6154,4136.4103,4168.7179,4049.7436,4134.8718,4133.3333,4141.5385,4149.2308,4307.6923,4153.8462,4139.4872,4136.9231
3900,4137.9487,4164.6154,4048.2051,4112.8205,4135.8974,4137.9487,4132.3077,4280,4151.2821,4134.359,4133.3333
3862.0513,4127.6923,4139.4872,4020.5128,4066.1538,4120.5128,4113.8462,4115.8974,4245.1282,4119.4872,4102.0513,4107.1795
3866.6667,4138.9744,4140.5128,4021.5385,4094.359,4122.5641,4122.0513,4127.6923,4254.8718,4128.7179,4108.2051,4123.5897
3900,4146.1538,4155.3846,4043.5897,4135.3846,4140,4141.5385,4138.4615,4258.4615,4145.641,4128.2051,4135.3846
3895.8974,4132.8205,4156.9231,4046.6667,4119.4872,4134.8718,4138.4615,4134.8718,4233.8462,4144.6154,4121.5385,4125.641
3880.5128,4130.2564,4156.9231,4039.4872,4094.8718,4123.5897,4128.7179,4131.2821,4226.6667,4150.2564,4109.2308,4131.2821
3868.7179,4129.7436,4148.2051,4035.8974,4062.5641,4112.3077,4118.9744,4128.2051,4225.1282,4141.0256,4095.3846,4123.0769
3856.9231,4129.2308,4135.3846,4031.2821,4064.6154,4113.3333,4115.8974,4126.6667,4207.6923,4123.0769,4080.5128,4105.641
3884.1026,4143.5897,4154.8718,4042.0513,4141.5385,4138.9744,4133.8462,4139.4872,4217.4359,4147.1795,4103.0769,4131.7949
3903.0769,4143.5897,4170.7692,4053.8462,4144.6154,4138.4615,4136.9231,4136.9231,4223.0769,4162.0513,4113.8462,4145.1282
3875.3846,4129.2308,4152.8205,4042.0513,4070.7692,4115.3846,4117.4359,4122.0513,4196.9231,4138.4615,4077.9487,4114.8718
3876.4103,4133.3333,4151.2821,4035.3846,4081.5385,4122.0513,4123.0769,4132.3077,4197.4359,4147.1795,4086.6667,4127.6923
3900,4138.9744,4163.5897,4043.5897,4121.5385,4135.3846,4144.1026,4153.8462,4202.0513,4177.4359,4115.3846,4160
3883.5897,4127.6923,4150.7692,4036.4103,4107.1795,4136.4103,4134.8718,4145.641,4155.3846,4160.5128,4084.6154,4138.4615
3873.3333,4123.0769,4146.1538,4032.3077,4094.8718,4134.8718,4116.9231,4129.7436,4133.8462,4142.5641,4066.1538,4123.5897
3894.8718,4133.8462,4162.0513,4044.1026,4086.1538,4128.2051,4124.1026,4138.4615,4158.4615,4160,4092.3077,4145.1282
3899.4872,4136.9231,4162.0513,4041.5385,4083.5897,4134.359,4138.4615,4144.1026,4140,4159.4872,4083.5897,4142.5641
3907.6923,4138.9744,4173.8462,4051.2821,4129.2308,4156.9231,4148.2051,4147.6923,4124.1026,4162.5641,4076.4103,4148.2051
3933.3333,4147.6923,4203.0769,4076.4103,4169.2308,4163.5897,4156.9231,4159.4872,4155.3846,4191.2821,4115.3846,4182.0513
3935.8974,4146.1538,4203.5897,4071.2821,4166.6667,4163.5897,4159.4872,4165.641,4141.5385,4206.1538,4114.359,4185.1282
3918.9744,4132.8205,4177.9487,4054.8718,4130.2564,4158.9744,4146.1538,4155.3846,4102.5641,4188.7179,4071.7949,4164.1026
3909.7436,4124.6154,4170.2564,4056.9231,4091.2821,4140,4133.8462,4143.5897,4122.0513,4164.1026,4076.9231,4166.1538
3918.4615,4132.8205,4183.0769,4061.5385,4114.8718,4137.9487,4145.1282,4156.9231,4133.3333,4177.4359,4103.5897,4181.0256
3929.2308,4137.9487,4190.2564,4059.4872,4160.5128,4161.0256,4156.9231,4166.6667,4100.5128,4200,4089.7436,4185.641
3914.8718,4123.0769,4181.5385,4052.3077,4133.8462,4157.4359,4138.9744,4145.1282,4086.6667,4188.2051,4069.2308,4175.3846
3904.1026,4121.5385,4176.9231,4044.6154,4101.5385,4132.8205,4125.641,4137.9487,4103.5897,4175.3846,4083.5897,4163.5897
3933.8462,4136.4103,4194.8718,4055.3846,4149.7436,4144.1026,4149.7436,4163.5897,4112.8205,4205.641,4111.7949,4197.4359
3950.2564,4134.359,4206.1538,4068.7179,4164.1026,4158.4615,4154.8718,4163.0769,4090.2564,4218.9744,4123.5897,4236.4103
3930.7692,4128.7179,4195.3846,4069.2308,4101.0256,4135.8974,4128.2051,4143.0769,4084.1026,4198.4615,4122.0513,4221.0256
3927.6923,4132.8205,4196.4103,4073.3333,4094.8718,4131.2821,4132.3077,4151.2821,4115.3846,4208.7179,4152.8205,4201.0256
3946.1538,4134.8718,4218.4615,4078.4615,4155.8974,4157.4359,4156.4103,4164.1026,4109.2308,4230.7692,4224.6154,4231.7949
3948.7179,4131.7949,4220,4071.7949,4171.2821,4162.0513,4147.6923,4147.6923,4088.7179,4224.6154,4284.6154,4265.641
3921.0256,4127.1795,4199.4872,4054.359,4143.0769,4155.3846,4131.7949,4133.3333,4105.1282,4224.1026,4303.5897,4256.9231
3891.7949,4122.0513,4205.641,4043.5897,4127.1795,4154.359,4140,4155.8974,4099.4872,4247.6923,4318.9744,4239.4872
3876.9231,4122.5641,4220.5128,4049.7436,4106.6667,4128.7179,4134.359,4164.6154,4077.4359,4241.0256,4361.0256,4228.7179
3863.5897,4131.7949,4209.2308,4050.2564,4096.4103,4110.7692,4112.3077,4129.7436,4052.3077,4230.2564,4399.4872,4243.0769
3852.3077,4134.359,4204.6154,4043.0769,4122.0513,4131.7949,4114.8718,4114.359,4038.4615,4248.7179,4422.5641,4276.9231
3858.4615,4132.8205,4228.7179,4053.8462,4130.7692,4138.9744,4127.6923,4139.4872,4083.5897,4248.2051,4426.6667,4297.4359
3841.0256,4130.7692,4233.8462,4057.9487,4112.3077,4119.4872,4117.4359,4148.7179,4098.4615,4231.7949,4393.3333,4285.641
3795.8974,4121.5385,4214.359,4037.4359,4108.7179,4118.4615,4105.641,4130.2564,4043.0769,4243.0769,4370.2564,4275.8974
3796.4103,4121.0256,4220,4036.9231,4101.0256,4129.7436,4118.9744,4141.0256,4062.0513,4268.7179,4408.7179,4299.4872
3810.2564,4128.2051,4235.3846,4057.9487,4090.2564,4125.641,4131.2821,4162.5641,4101.0256,4266.6667,4449.2308,4305.1282
3775.3846,4130.2564,4226.6667,4059.4872,4113.8462,4124.1026,4125.641,4144.1026,4054.359,4246.6667,4446.1538,4282.0513
3761.0256,4132.8205,4222.5641,4064.1026,4143.0769,4134.8718,4125.641,4132.3077,4066.6667,4249.2308,4462.5641,4289.7436
3770.2564,4128.7179,4235.8974,4080.5128,4132.3077,4138.9744,4133.3333,4153.3333,4131.2821,4259.4872,4494.359,4304.6154
3719.4872,4120.5128,4229.2308,4068.7179,4108.7179,4138.9744,4123.0769,4154.8718,4087.6923,4231.7949,4467.6923,4268.2051
3700.5128,4126.6667,4220,4050.7692,4107.1795,4136.9231,4110.2564,4134.359,4015.3846,4222.0513,4451.7949,4252.3077
3768.2051,4137.9487,4240.5128,4073.3333,4109.7436,4119.4872,4118.9744,4136.9231,4040,4269.7436,4509.2308,4288.7179
3785.641,4137.9487,4241.0256,4089.2308,4112.8205,4114.8718,4128.2051,4149.2308,4089.7436,4265.641,4541.5385,4283.5897
3727.6923,4129.2308,4206.6667,4053.8462,4098.4615,4135.3846,4118.9744,4138.4615,4061.0256,4210.7692,4506.1538,4237.9487
3709.2308,4131.2821,4203.0769,4031.2821,4083.5897,4134.359,4116.4103,4133.8462,4020.5128,4214.359,4504.6154,4229.7436
3746.1538,4144.6154,4233.3333,4063.0769,4116.4103,4123.5897,4135.8974,4156.4103,4051.2821,4261.5385,4541.5385,4266.1538
3756.9231,4145.1282,4231.2821,4084.6154,4132.3077,4133.3333,4135.3846,4157.9487,4073.8462,4254.359,4540,4272.3077
3732.3077,4134.359,4212.3077,4060.5128,4105.1282,4137.9487,4120,4136.4103,4038.4615,4220,4525.641,4243.5897
3714.8718,4132.3077,4210.2564,4034.8718,4105.641,4134.8718,4124.6154,4140,4020,4225.641,4516.9231,4226.1538
3713.8462,4134.8718,4201.5385,4031.2821,4112.8205,4135.3846,4122.0513,4140,4033.8462,4221.5385,4505.1282,4211.2821
3718.9744,4131.7949,4192.8205,4036.4103,4077.9487,4121.0256,4103.0769,4117.9487,4034.359,4198.4615,4499.4872,4194.8718
3740,4132.8205,4210.2564,4051.2821,4080.5128,4105.1282,4109.2308,4129.2308,4050.7692,4215.8974,4514.359,4214.359
3757.9487,4136.4103,4227.6923,4061.5385,4136.9231,4124.1026,4131.7949,4155.3846,4060.5128,4241.0256,4532.3077,4235.3846
3744.1026,4129.7436,4216.9231,4051.7949,4146.6667,4151.2821,4125.641,4144.6154,4025.641,4229.7436,4525.641,4210.2564
3739.4872,4130.7692,4211.7949,4045.1282,4100.5128,4140.5128,4115.8974,4133.8462,4029.2308,4229.2308,4523.0769,4204.6154
3760,4143.0769,4229.2308,4058.9744,4090.2564,4117.4359,4131.2821,4156.4103,4079.4872,4254.359,4547.1795,4238.9744
3764.6154,4131.2821,4225.641,4066.6667,4111.7949,4118.9744,4137.4359,4164.6154,4083.0769,4246.1538,4563.0769,4236.4103
3738.4615,4113.8462,4196.9231,4048.2051,4101.0256,4130.7692,4122.5641,4135.8974,4043.0769,4207.6923,4525.641,4191.7949
3725.641,4118.4615,4188.7179,4036.4103,4085.641,4132.3077,4114.8718,4128.2051,4011.2821,4197.9487,4487.6923,4172.8205
3742.0513,4127.6923,4202.0513,4046.6667,4106.6667,4136.4103,4123.5897,4149.7436,4004.6154,4221.5385,4494.8718,4191.7949
3753.8462,4122.5641,4201.0256,4054.8718,4134.359,4143.5897,4128.7179,4146.6667,4042.0513,4221.0256,4522.0513,4191.2821
3758.4615,4113.8462,4200,4062.0513,4112.8205,4129.7436,4125.1282,4136.4103,4076.4103,4207.1795,4545.1282,4190.2564
3759.4872,4113.8462,4201.0256,4066.1538,4077.9487,4121.5385,4123.0769,4150.7692,4037.4359,4214.8718,4515.8974,4195.3846
3743.0769,4113.8462,4187.1795,4057.9487,4086.6667,4140,4121.0256,4162.0513,4023.5897,4218.9744,4481.0256,4176.9231
3752.3077,4118.4615,4190.7692,4062.0513,4105.641,4141.0256,4123.0769,4150.7692,4093.8462,4220,4535.3846,4180
3798.4615,4131.7949,4213.8462,4082.5641,4112.8205,4129.7436,4134.8718,4148.2051,4100.5128,4240,4577.9487,4218.9744
3794.8718,4129.7436,4202.5641,4075.8974,4122.5641,4150.7692,4142.5641,4158.4615,4027.1795,4231.7949,4521.0256,4205.1282
3763.0769,4115.8974,4180,4061.0256,4122.0513,4161.0256,4136.4103,4160,4030.2564,4201.5385,4488.7179,4158.4615
3780,4119.4872,4191.2821,4070.7692,4080,4125.641,4126.6667,4141.0256,4081.0256,4208.7179,4536.4103,4175.8974
3783.0769,4129.7436,4196.9231,4074.8718,4063.5897,4114.359,4122.0513,4125.641,4074.359,4217.9487,4539.4872,4194.8718
3754.359,4126.1538,4179.4872,4071.7949,4114.8718,4147.6923,4125.641,4147.1795,4056.9231,4197.4359,4495.3846,4158.4615
3766.6667,4120,4179.4872,4069.7436,4114.8718,4142.5641,4127.1795,4158.4615,4046.1538,4193.3333,4491.2821,4144.1026
3793.3333,4124.1026,4188.2051,4064.6154,4071.7949,4110.7692,4118.9744,4135.3846,4052.8205,4204.1026,4507.6923,4162.0513
3783.5897,4122.0513,4175.8974,4062.5641,4099.4872,4128.2051,4117.9487,4122.5641,4083.0769,4194.359,4511.7949,4156.9231
3773.3333,4113.3333,4164.6154,4070.7692,4115.3846,4148.2051,4123.0769,4141.0256,4066.6667,4185.641,4506.1538,4142.0513
3790.2564,4120,4182.0513,4084.6154,4062.0513,4123.0769,4121.5385,4157.9487,4037.9487,4205.1282,4507.1795,4166.6667
3806.6667,4125.1282,4196.4103,4088.2051,4067.6923,4113.8462,4124.1026,4153.3333,4088.7179,4216.4103,4517.9487,4188.7179
3813.8462,4123.0769,4186.6667,4083.5897,4147.6923,4151.7949,4141.0256,4149.2308,4095.3846,4206.1538,4531.2821,4167.1795
3817.9487,4121.5385,4172.8205,4077.9487,4147.1795,4167.1795,4143.0769,4154.8718,4012.3077,4204.6154,4517.4359,4146.6667
3811.7949,4114.8718,4167.1795,4073.3333,4056.4103,4121.0256,4117.4359,4148.2051,4013.3333,4202.5641,4491.7949,4150.2564
3807.6923,4119.4872,4169.7436,4076.9231,4041.5385,4092.8205,4109.2308,4141.5385,4082.5641,4185.641,4509.2308,4149.7436
3821.0256,4130.7692,4179.4872,4089.2308,4122.5641,4133.3333,4130.2564,4149.7436,4078.4615,4189.2308,4525.1282,4146.6667
3833.3333,4126.1538,4180,4094.8718,4149.2308,4165.641,4140.5128,4150.2564,4041.0256,4205.641,4509.7436,4158.9744
3832.3077,4123.0769,4173.8462,4092.3077,4105.1282,4137.9487,4129.2308,4148.7179,4049.2308,4205.641,4513.8462,4169.7436
3832.8205,4128.2051,4170.7692,4091.2821,4086.6667,4114.8718,4122.5641,4154.8718,4059.4872,4197.4359,4521.5385,4157.4359
3822.0513,4116.9231,4161.5385,4083.0769,4074.359,4121.0256,4122.5641,4143.0769,4040.5128,4182.0513,4493.8462,4131.7949
3806.6667,4104.1026,4147.6923,4074.8718,4067.6923,4127.1795,4119.4872,4125.641,4057.9487,4163.5897,4481.0256,4124.6154
3826.1538,4115.3846,4153.8462,4087.1795,4112.3077,4134.359,4127.6923,4146.6667,4084.1026,4173.3333,4496.4103,4140
3847.6923,4123.5897,4165.641,4100,4114.8718,4132.8205,4132.8205,4163.5897,4049.2308,4183.0769,4487.6923,4135.8974
3832.8205,4110.2564,4158.9744,4089.2308,4056.4103,4112.8205,4116.4103,4136.4103,4030.2564,4168.2051,4474.359,4124.6154
3820,4109.7436,4153.3333,4080.5128,4058.4615,4107.1795,4112.8205,4121.0256,4050.2564,4168.7179,4473.3333,4119.4872
3835.8974,4118.9744,4153.3333,4085.1282,4117.9487,4136.9231,4130.2564,4142.5641,4049.2308,4175.8974,4471.7949,4108.7179
3859.4872,4115.3846,4158.9744,4087.6923,4115.8974,4148.2051,4132.8205,4157.9487,4056.9231,4172.8205,4481.0256,4125.641
3867.6923,4111.2821,4173.3333,4094.359,4062.0513,4114.8718,4119.4872,4144.1026,4077.9487,4179.4872,4488.7179,4151.7949
3863.5897,4112.8205,4176.4103,4107.1795,4066.6667,4106.6667,4122.0513,4133.8462,4067.1795,4191.7949,4484.6154,4134.8718
3863.0769,4115.3846,4161.0256,4104.1026,4097.9487,4134.359,4131.7949,4143.0769,4056.9231,4187.1795,4482.0513,4116.4103
3866.1538,4114.359,4155.3846,4089.7436,4077.4359,4132.8205,4127.6923,4150.7692,4081.5385,4172.3077,4480.5128,4126.1538
3861.5385,4111.2821,4154.8718,4088.7179,4059.4872,4114.8718,4120.5128,4146.1538,4064.6154,4170.2564,4462.5641,4123.0769
3864.6154,4110.2564,4146.1538,4092.3077,4073.3333,4120,4120.5128,4136.9231,4022.5641,4172.3077,4461.0256,4110.7692
3877.9487,4108.2051,4148.2051,4095.3846,4064.6154,4120,4118.9744,4137.9487,4055.3846,4175.3846,4473.8462,4119.4872
3866.1538,4106.1538,4145.641,4095.8974,4038.4615,4105.641,4108.2051,4140.5128,4090.2564,4172.3077,4449.7436,4116.4103
3853.3333,4111.2821,4139.4872,4092.3077,4045.1282,4103.0769,4104.1026,4132.8205,4060,4164.6154,4437.9487,4100.5128
3881.5385,4119.4872,4154.359,4097.9487,4092.8205,4122.0513,4121.0256,4136.9231,4044.1026,4171.2821,4472.3077,4114.8718
3912.3077,4119.4872,4172.3077,4115.3846,4115.3846,4138.9744,4133.3333,4162.0513,4075.8974,4193.3333,4486.6667,4140.5128
3902.5641,4108.2051,4162.5641,4118.9744,4069.7436,4124.1026,4122.5641,4163.0769,4073.8462,4200,4475.8974,4132.8205
3894.8718,4108.7179,4153.8462,4110.2564,4049.2308,4102.0513,4117.9487,4140,4042.0513,4189.7436,4467.6923,4109.2308
3905.641,4116.4103,4158.4615,4109.7436,4076.4103,4114.8718,4125.1282,4132.3077,4041.5385,4177.4359,4459.4872,4105.1282
3902.0513,4104.1026,4149.2308,4105.1282,4071.2821,4136.9231,4122.0513,4137.9487,4047.6923,4165.1282,4448.2051,4106.1538
3903.0769,4099.4872,4150.7692,4108.2051,4061.0256,4127.1795,4118.4615,4145.1282,4053.8462,4167.1795,4452.8205,4112.3077
3922.5641,4114.8718,4169.2308,4131.7949,4086.6667,4108.2051,4125.1282,4156.9231,4066.6667,4189.2308,4463.5897,4135.3846
3921.0256,4112.8205,4162.5641,4136.4103,4104.6154,4118.9744,4127.6923,4158.4615,4062.0513,4190.7692,4452.3077,4128.7179
3906.6667,4104.1026,4145.641,4119.4872,4090.2564,4133.8462,4123.5897,4136.9231,4055.8974,4166.6667,4444.1026,4102.0513
3917.9487,4106.6667,4148.2051,4120,4060.5128,4117.4359,4116.9231,4128.7179,4041.0256,4167.1795,4445.1282,4106.1538
3929.2308,4102.0513,4149.7436,4125.1282,4060,4107.6923,4111.7949,4148.7179,4021.0256,4188.2051,4434.359,4110.2564
3927.1795,4095.8974,4145.641,4122.0513,4084.1026,4119.4872,4117.4359,4156.9231,4047.1795,4186.6667,4440.5128,4112.8205
3926.1538,4099.4872,4146.1538,4122.5641,4059.4872,4110.7692,4123.0769,4137.9487,4066.6667,4168.7179,4455.3846,4117.9487
3924.1026,4104.1026,4137.9487,4122.0513,4033.8462,4097.9487,4118.4615,4130.7692,4040.5128,4161.0256,4440.5128,4103.5897
3933.3333,4107.6923,4129.2308,4126.1538,4089.2308,4112.8205,4118.4615,4147.6923,4047.1795,4172.8205,4418.4615,4099.4872
3939.4872,4110.2564,4126.6667,4133.8462,4121.0256,4126.1538,4123.5897,4150.7692,4047.1795,4178.9744,4409.2308,4103.5897
3928.2051,4101.5385,4117.9487,4123.0769,4074.8718,4119.4872,4120,4135.8974,4001.5385,4153.8462,4409.2308,4084.6154
3928.7179,4100.5128,4125.641,4118.4615,4068.7179,4118.9744,4117.4359,4134.359,4017.9487,4145.1282,4425.1282,4086.6667
3945.1282,4115.8974,4144.1026,4130.7692,4101.5385,4126.1538,4124.1026,4141.5385,4062.0513,4170.2564,4429.7436,4114.359
3944.6154,4109.7436,4140.5128,4131.7949,4088.7179,4120.5128,4121.0256,4137.4359,4035.3846,4171.7949,4409.7436,4106.1538
3935.3846,4092.8205,4132.3077,4118.4615,4068.2051,4109.2308,4114.359,4137.4359,4026.6667,4150.7692,4412.8205,4080.5128
3945.641,4096.4103,4142.5641,4115.3846,4085.1282,4113.8462,4128.2051,4155.8974,4053.3333,4165.1282,4417.9487,4095.3846
3947.1795,4102.0513,4141.0256,4115.8974,4100,4134.8718,4137.9487,4151.7949,4034.359,4181.5385,4393.8462,4109.2308
3926.6667,4103.0769,4121.0256,4108.2051,4085.1282,4134.359,4126.1538,4127.6923,4011.7949,4152.8205,4390.2564,4089.7436
3926.6667,4101.5385,4118.4615,4105.1282,4069.7436,4110.2564,4117.4359,4130.7692,4023.0769,4134.8718,4405.641,4080
3942.5641,4102.5641,4123.5897,4111.2821,4061.0256,4100,4114.359,4137.4359,4029.7436,4135.3846,4411.2821,4083.5897
3944.1026,4105.641,4117.9487,4113.8462,4066.1538,4113.8462,4112.3077,4120,4052.3077,4135.8974,4411.2821,4083.0769
3947.1795,4105.1282,4118.9744,4106.6667,4083.5897,4120.5128,4119.4872,4123.5897,4071.2821,4151.7949,4399.4872,4089.2308
3958.9744,4098.9744,4125.1282,4105.641,4084.1026,4115.3846,4123.5897,4140.5128,4026.6667,4153.8462,4387.1795,4091.2821
3963.0769,4096.4103,4121.5385,4117.9487,4074.8718,4118.9744,4115.8974,4133.3333,4008.2051,4140.5128,4394.359,4085.1282
3964.1026,4107.6923,4122.5641,4125.641,4082.5641,4120,4118.4615,4142.0513,4071.7949,4155.8974,4397.9487,4097.9487
3962.0513,4110.2564,4127.1795,4118.4615,4080.5128,4116.4103,4127.6923,4161.0256,4086.6667,4170.7692,4391.7949,4106.6667
3957.4359,4098.9744,4117.4359,4107.1795,4058.9744,4115.8974,4125.641,4141.5385,4032.8205,4140,4406.1538,4084.6154
3968.2051,4102.5641,4114.8718,4108.2051,4071.7949,4117.4359,4125.1282,4123.5897,4038.4615,4127.6923,4398.9744,4084.6154
3968.7179,4107.1795,4117.4359,4109.7436,4096.9231,4126.6667,4128.2051,4138.4615,4052.3077,4145.1282,4357.4359,4093.3333
3949.2308,4104.1026,4107.1795,4101.5385,4071.7949,4126.1538,4124.1026,4141.0256,4005.641,4131.7949,4352.8205,4068.7179
3962.0513,4108.2051,4108.2051,4105.1282,4054.8718,4110.2564,4120,4132.3077,4022.0513,4127.6923,4385.1282,4074.8718
3991.7949,4114.8718,4130.7692,4121.0256,4079.4872,4106.1538,4125.641,4143.5897,4088.2051,4158.9744,4394.8718,4121.5385
3980,4110.2564,4134.8718,4123.0769,4075.8974,4115.8974,4126.1538,4140.5128,4065.1282,4158.4615,4368.2051,4112.8205
3944.6154,4092.3077,4105.1282,4104.1026,4052.8205,4124.1026,4111.2821,4118.9744,4004.6154,4107.6923,4346.1538,4054.8718
3951.7949,4096.9231,4101.0256,4097.4359,4076.9231,4135.3846,4112.8205,4128.7179,4026.1538,4097.9487,4365.641,4061.5385
3999.4872,4122.5641,4138.9744,4120,4083.5897,4123.0769,4135.8974,4161.0256,4050.7692,4161.0256,4374.8718,4108.2051
4000.5128,4114.8718,4141.5385,4124.6154,4035.8974,4103.5897,4131.2821,4152.8205,4018.9744,4172.3077,4341.5385,4086.6667
3956.9231,4095.3846,4111.2821,4101.0256,4029.7436,4114.359,4110.2564,4123.5897,4022.5641,4113.3333,4338.9744,4061.5385
3968.2051,4107.6923,4122.5641,4104.1026,4086.1538,4127.1795,4122.0513,4141.0256,4050.7692,4118.4615,4368.2051,4094.359
4021.0256,4118.9744,4148.7179,4131.7949,4113.8462,4128.7179,4142.5641,4166.1538,4047.6923,4169.7436,4359.4872,4111.7949
4016.4103,4106.1538,4129.7436,4125.1282,4065.1282,4128.2051,4123.5897,4143.5897,4030.2564,4144.6154,4344.6154,4087.6923
3988.7179,4098.4615,4112.3077,4104.1026,4025.1282,4112.8205,4103.0769,4122.0513,4035.8974,4110.7692,4351.2821,4079.4872
4011.2821,4106.6667,4135.8974,4115.8974,4066.1538,4107.6923,4124.1026,4137.4359,4042.5641,4137.4359,4358.4615,4098.9744
4028.7179,4111.7949,4151.7949,4131.7949,4110.2564,4132.3077,4139.4872,4146.6667,4031.7949,4154.359,4356.9231,4103.5897
4011.2821,4112.3077,4144.1026,4129.7436,4091.7949,4140,4126.6667,4134.8718,4038.4615,4149.2308,4338.9744,4094.359
4004.1026,4106.1538,4135.3846,4122.5641,4065.641,4120.5128,4118.4615,4132.3077,4035.8974,4140,4319.4872,4087.6923
4013.8462,4100,4136.9231,4121.5385,4058.4615,4104.1026,4122.0513,4145.1282,4014.359,4136.9231,4318.4615,4091.2821
4011.2821,4105.641,4137.9487,4122.0513,4048.7179,4104.1026,4118.4615,4141.5385,4003.5897,4136.4103,4309.7436,4081.5385
4009.2308,4113.8462,4136.9231,4119.4872,4061.0256,4115.8974,4115.3846,4128.7179,4018.9744,4128.2051,4300,4067.6923
4029.2308,4118.4615,4151.2821,4125.641,4096.9231,4123.5897,4123.5897,4140,4050.7692,4133.8462,4325.641,4100.5128
4036.9231,4118.9744,4158.4615,4129.2308,4106.6667,4129.7436,4129.2308,4149.7436,4048.7179,4151.7949,4329.2308,4119.4872
4009.7436,4109.7436,4135.8974,4112.8205,4060,4123.5897,4120.5128,4134.8718,4023.0769,4137.4359,4301.0256,4078.4615
4004.6154,4107.1795,4126.6667,4100.5128,4015.8974,4100,4111.2821,4128.2051,4013.8462,4113.3333,4297.9487,4059.4872
4034.359,4113.8462,4147.1795,4109.7436,4047.1795,4103.5897,4117.4359,4142.5641,4054.359,4134.359,4308.7179,4094.359
4033.8462,4113.3333,4157.9487,4112.8205,4096.9231,4133.8462,4126.1538,4143.0769,4084.1026,4149.2308,4306.6667,4105.1282
4025.1282,4115.3846,4151.2821,4107.6923,4097.4359,4135.8974,4122.5641,4133.8462,4049.7436,4135.8974,4293.8462,4081.0256
4056.9231,4122.5641,4156.9231,4107.6923,4084.6154,4118.9744,4119.4872,4131.2821,4041.5385,4138.9744,4313.3333,4090.2564
4061.0256,4115.8974,4159.4872,4096.9231,4078.9744,4120.5128,4121.5385,4122.0513,4066.6667,4141.5385,4322.0513,4107.1795
4017.4359,4105.641,4142.0513,4084.6154,4058.4615,4125.641,4120.5128,4127.6923,4056.4103,4132.3077,4270.7692,4087.1795
4022.0513,4112.3077,4142.5641,4090.7692,4042.5641,4120,4122.5641,4150.2564,4041.0256,4142.0513,4267.1795,4081.5385
4052.3077,4120.5128,4161.0256,4090.2564,4054.359,4116.9231,4128.7179,4153.3333,4054.359,4153.3333,4323.5897,4107.6923
4034.359,4111.2821,4152.8205,4077.9487,4073.8462,4122.5641,4126.6667,4137.4359,4056.9231,4130.2564,4310.7692,4102.5641
4019.4872,4107.6923,4137.4359,4074.8718,4068.7179,4125.641,4125.1282,4138.9744,4061.0256,4116.9231,4263.0769,4077.9487
4043.0769,4114.8718,4151.7949,4078.4615,4065.1282,4129.2308,4135.8974,4149.7436,4076.9231,4145.641,4297.4359,4098.4615
4053.3333,4117.9487,4161.0256,4078.9744,4073.3333,4130.7692,4135.3846,4131.7949,4048.2051,4158.9744,4321.0256,4115.3846
4042.0513,4116.9231,4150.7692,4078.4615,4071.7949,4119.4872,4118.9744,4126.1538,4028.2051,4145.1282,4269.2308,4093.3333
4056.4103,4114.359,4158.4615,4085.1282,4078.4615,4115.8974,4124.6154,4152.3077,4053.8462,4152.3077,4254.8718,4093.8462
4061.5385,4111.2821,4158.4615,4079.4872,4046.1538,4112.3077,4125.1282,4137.9487,4049.2308,4144.6154,4274.8718,4097.9487
4028.7179,4108.2051,4141.0256,4060.5128,4004.6154,4101.0256,4105.1282,4107.6923,4034.8718,4110.7692,4260,4071.7949
4021.5385,4111.7949,4144.6154,4066.6667,4062.0513,4117.4359,4113.8462,4136.9231,4030.2564,4120.5128,4238.9744,4067.6923
4057.9487,4122.5641,4160,4091.7949,4134.8718,4149.2308,4146.1538,4166.1538,4030.2564,4146.6667,4267.6923,4101.0256
4074.359,4120.5128,4163.5897,4096.4103,4105.1282,4141.0256,4141.5385,4144.6154,4064.1026,4137.9487,4293.8462,4117.4359
4052.3077,4109.2308,4162.5641,4085.1282,4053.3333,4115.8974,4120,4132.3077,4071.7949,4135.3846,4262.5641,4100
4045.1282,4113.3333,4160,4085.1282,4061.5385,4123.5897,4129.2308,4147.1795,4042.5641,4141.5385,4254.8718,4095.8974
4050.7692,4116.4103,4151.2821,4084.6154,4066.1538,4134.359,4138.9744,4142.0513,4046.1538,4125.641,4274.8718,4096.4103
4049.2308,4118.4615,4157.9487,4081.5385,4051.7949,4120,4131.7949,4135.8974,4042.5641,4128.7179,4258.4615,4091.7949
4055.3846,4123.0769,4173.8462,4082.5641,4058.4615,4114.8718,4130.7692,4147.6923,4011.2821,4148.7179,4239.4872,4098.9744
4061.5385,4116.9231,4171.7949,4077.9487,4079.4872,4133.8462,4135.3846,4144.1026,4037.9487,4137.4359,4246.6667,4100.5128
4053.8462,4111.2821,4163.5897,4076.4103,4073.3333,4139.4872,4133.3333,4129.2308,4085.641,4118.4615,4243.0769,4085.1282
4046.1538,4112.8205,4164.6154,4082.0513,4042.5641,4122.5641,4124.6154,4137.4359,4061.0256,4126.6667,4221.0256,4078.4615
4064.1026,4119.4872,4175.8974,4091.7949,4055.3846,4118.4615,4127.1795,4159.4872,4054.8718,4142.0513,4230.7692,4103.5897
4074.359,4117.4359,4174.8718,4093.3333,4057.9487,4121.5385,4132.3077,4152.3077,4091.7949,4138.4615,4249.2308,4108.7179
4063.0769,4116.4103,4165.641,4084.1026,4036.9231,4118.9744,4132.8205,4138.9744,4066.6667,4133.3333,4230.2564,4091.2821
4072.8205,4120,4177.9487,4087.6923,4074.359,4132.8205,4141.0256,4153.8462,4037.9487,4147.1795,4219.4872,4102.5641
4079.4872,4113.8462,4186.1538,4092.8205,4097.9487,4145.641,4143.5897,4160,4071.7949,4150.2564,4234.359,4118.4615
4046.6667,4110.2564,4169.2308,4082.0513,4054.8718,4131.7949,4128.7179,4142.0513,4073.3333,4118.9744,4224.6154,4091.2821
4046.6667,4116.9231,4170.2564,4085.641,4043.0769,4121.0256,4126.1538,4134.8718,4050.2564,4118.4615,4214.8718,4080
4091.7949,4121.5385,4190.7692,4106.1538,4066.6667,4122.5641,4140.5128,4148.7179,4073.8462,4155.8974,4238.4615,4124.1026
4080,4115.8974,4177.9487,4101.0256,4053.8462,4122.0513,4130.7692,4142.5641,4093.8462,4138.9744,4242.5641,4117.4359
4040.5128,4112.3077,4159.4872,4085.641,4052.3077,4126.1538,4116.4103,4130.7692,4070.7692,4109.7436,4215.3846,4085.1282
4062.0513,4120,4170.2564,4100,4080.5128,4129.2308,4131.2821,4150.2564,4051.2821,4142.0513,4206.6667,4107.1795
4084.1026,4123.0769,4177.4359,4112.8205,4087.1795,4131.7949,4143.5897,4158.9744,4069.2308,4153.3333,4222.0513,4118.4615
4057.9487,4112.8205,4168.2051,4100,4059.4872,4136.9231,4131.2821,4140.5128,4093.8462,4117.9487,4215.8974,4092.3077
4040,4107.1795,4157.4359,4083.5897,4033.3333,4127.1795,4120,4132.8205,4076.9231,4109.7436,4185.1282,4081.5385
4057.4359,4112.8205,4158.4615,4084.6154,4054.359,4120,4128.7179,4145.1282,4054.359,4131.2821,4186.1538,4095.8974
4065.1282,4114.359,4167.6923,4090.2564,4084.6154,4135.3846,4142.5641,4149.7436,4074.8718,4130.2564,4207.6923,4097.4359
4057.9487,4112.3077,4170.2564,4092.3077,4065.641,4135.8974,4137.9487,4146.6667,4079.4872,4126.1538,4196.4103,4093.3333
4067.1795,4114.359,4173.8462,4105.1282,4053.8462,4114.8718,4132.8205,4151.7949,4066.1538,4144.1026,4177.9487,4097.4359
4078.9744,4117.9487,4178.9744,4111.2821,4080.5128,4121.5385,4137.4359,4150.7692,4078.9744,4148.7179,4195.3846,4108.7179
4065.1282,4111.7949,4165.641,4092.8205,4085.1282,4139.4872,4129.2308,4141.5385,4081.5385,4131.2821,4201.0256,4110.2564
4059.4872,4112.3077,4163.5897,4089.7436,4068.2051,4130.7692,4122.0513,4143.5897,4078.9744,4126.6667,4183.5897,4087.6923
4086.1538,4120,4184.6154,4108.2051,4058.4615,4120.5128,4128.7179,4147.1795,4092.8205,4138.9744,4185.1282,4092.8205
4094.8718,4117.4359,4184.1026,4107.6923,4061.0256,4124.1026,4126.6667,4144.1026,4089.7436,4136.9231,4191.2821,4119.4872
4083.5897,4117.9487,4175.8974,4102.0513,4081.0256,4125.641,4124.6154,4147.6923,4073.3333,4135.8974,4178.4615,4111.7949
4079.4872,4117.4359,4175.8974,4105.641,4088.7179,4127.6923,4129.2308,4139.4872,4071.2821,4132.3077,4161.0256,4087.6923
4062.0513,4107.1795,4156.9231,4095.8974,4063.0769,4135.3846,4121.5385,4117.4359,4069.7436,4104.6154,4158.9744,4083.0769
4052.8205,4104.6154,4149.7436,4085.641,4029.2308,4116.9231,4111.7949,4133.3333,4053.3333,4114.8718,4154.8718,4092.8205
4081.5385,4116.4103,4172.8205,4098.9744,4041.0256,4097.4359,4123.5897,4161.5385,4058.9744,4149.2308,4154.359,4099.4872
4089.7436,4124.1026,4177.4359,4111.2821,4084.1026,4122.0513,4138.4615,4147.6923,4072.8205,4140,4161.5385,4106.1538
4066.6667,4115.8974,4165.641,4105.641,4095.3846,4139.4872,4134.8718,4132.8205,4069.2308,4125.641,4163.5897,4109.2308
4078.9744,4113.3333,4168.7179,4104.1026,4090.2564,4128.2051,4128.7179,4144.1026,4077.4359,4136.4103,4167.6923,4104.6154
4092.3077,4117.9487,4163.0769,4105.641,4072.8205,4124.1026,4123.5897,4148.2051,4087.1795,4124.6154,4154.359,4092.8205
4067.1795,4112.3077,4147.1795,4093.3333,4034.359,4116.9231,4113.8462,4141.0256,4080,4109.2308,4138.4615,4084.6154
4067.1795,4111.2821,4155.3846,4089.7436,4045.641,4106.1538,4122.5641,4144.6154,4071.2821,4134.8718,4146.6667,4097.9487
4085.641,4114.359,4163.0769,4098.4615,4102.0513,4126.6667,4138.9744,4146.6667,4078.9744,4139.4872,4152.8205,4105.641
4062.5641,4106.1538,4141.5385,4089.7436,4097.9487,4148.7179,4128.7179,4135.3846,4063.0769,4107.6923,4129.7436,4082.5641
4050.2564,4113.8462,4138.9744,4086.1538,4064.1026,4133.8462,4117.4359,4133.8462,4042.5641,4107.1795,4117.4359,4072.8205
4086.6667,4131.7949,4165.641,4109.2308,4063.5897,4115.8974,4126.1538,4143.5897,4075.8974,4131.7949,4127.6923,4107.1795
4097.4359,4130.7692,4163.0769,4114.359,4060.5128,4121.0256,4125.641,4143.5897,4094.359,4126.6667,4117.4359,4112.8205
4070.2564,4120,4134.8718,4098.4615,4061.5385,4138.4615,4122.5641,4138.4615,4066.6667,4106.1538,4109.7436,4072.3077
4078.4615,4122.5641,4145.641,4108.7179,4080.5128,4141.0256,4137.4359,4148.2051,4076.9231,4129.2308,4140,4093.3333
4106.6667,4131.2821,4174.359,4130.7692,4075.8974,4124.6154,4138.9744,4160.5128,4113.3333,4156.9231,4154.8718,4143.5897
4096.4103,4125.1282,4161.5385,4124.1026,4057.9487,4126.1538,4123.0769,4147.1795,4096.9231,4136.4103,4116.9231,4112.3077
4080.5128,4122.5641,4146.1538,4105.1282,4063.5897,4137.4359,4121.5385,4127.1795,4089.7436,4117.4359,4104.6154,4082.5641
4094.359,4128.2051,4163.0769,4111.2821,4077.9487,4126.1538,4130.2564,4138.9744,4107.6923,4141.0256,4130.7692,4118.9744
4097.4359,4119.4872,4162.0513,4117.9487,4072.3077,4112.8205,4124.6154,4153.8462,4078.4615,4146.1538,4112.3077,4117.4359
4085.1282,4114.359,4142.0513,4107.6923,4050.2564,4115.8974,4114.8718,4142.0513,4070.2564,4121.5385,4090.7692,4088.2051
4090.7692,4123.0769,4148.7179,4107.1795,4044.1026,4117.9487,4116.9231,4130.7692,4116.9231,4128.2051,4115.3846,4110.7692
4093.3333,4124.6154,4159.4872,4112.3077,4082.5641,4131.2821,4125.1282,4136.4103,4123.5897,4137.9487,4116.4103,4120
4079.4872,4114.8718,4145.1282,4106.1538,4093.3333,4142.0513,4127.1795,4145.1282,4074.8718,4129.2308,4081.0256,4085.641
4080.5128,4116.4103,4143.5897,4101.0256,4051.7949,4123.5897,4120,4147.1795,4066.1538,4133.8462,4093.3333,4094.8718
4100.5128,4125.1282,4164.6154,4113.8462,4052.3077,4117.4359,4122.5641,4150.2564,4106.6667,4142.5641,4132.8205,4127.6923
4106.6667,4117.9487,4162.5641,4121.5385,4077.9487,4133.8462,4130.7692,4151.7949,4115.8974,4138.9744,4122.5641,4116.4103
4093.3333,4111.7949,4142.5641,4112.8205,4066.6667,4135.3846,4124.1026,4142.0513,4080.5128,4137.4359,4087.6923,4101.5385
4086.6667,4115.3846,4144.1026,4107.6923,4068.7179,4132.8205,4122.0513,4135.8974,4081.5385,4132.8205,4089.7436,4102.0513
4096.4103,4117.4359,4151.7949,4109.7436,4069.2308,4131.2821,4132.8205,4142.5641,4117.9487,4120.5128,4104.6154,4101.0256
4098.4615,4114.359,4143.5897,4104.6154,4037.9487,4118.9744,4129.7436,4145.641,4101.0256,4126.6667,4084.6154,4109.7436
4081.0256,4112.8205,4135.3846,4096.9231,4045.1282,4119.4872,4121.5385,4130.2564,4082.0513,4120.5128,4069.7436,4097.4359
4077.9487,4117.4359,4138.9744,4102.5641,4091.2821,4135.3846,4125.1282,4127.6923,4101.0256,4109.2308,4077.9487,4080
4088.2051,4118.9744,4147.6923,4107.1795,4096.9231,4134.359,4126.6667,4147.1795,4098.9744,4129.2308,4077.4359,4102.5641
4097.4359,4117.9487,4155.3846,4113.3333,4072.3077,4125.1282,4122.0513,4152.8205,4091.7949,4144.6154,4079.4872,4120
4104.1026,4120.5128,4158.9744,4123.0769,4060.5128,4122.0513,4125.1282,4141.5385,4110.7692,4136.9231,4081.0256,4107.1795
4105.641,4121.5385,4161.0256,4118.4615,4065.641,4122.5641,4125.641,4136.4103,4093.3333,4149.7436,4070.7692,4117.4359
4093.8462,4117.9487,4151.2821,4103.5897,4069.2308,4122.5641,4118.9744,4131.7949,4047.6923,4153.8462,4064.6154,4112.3077
4078.9744,4115.8974,4136.9231,4100,4064.6154,4123.0769,4118.9744,4127.1795,4072.8205,4121.5385,4068.7179,4082.5641
4088.2051,4120,4144.6154,4108.7179,4056.4103,4123.0769,4123.5897,4135.3846,4115.3846,4118.9744,4066.6667,4101.0256
4093.8462,4122.0513,4149.7436,4108.2051,4045.641,4120.5128,4121.0256,4135.3846,4086.6667,4131.7949,4047.1795,4113.3333
4075.8974,4115.8974,4133.8462,4097.4359,4053.8462,4121.5385,4114.8718,4133.3333,4058.4615,4114.359,4031.2821,4083.0769
4077.4359,4118.4615,4140.5128,4098.4615,4083.0769,4126.1538,4122.0513,4144.6154,4068.7179,4118.9744,4048.7179,4088.7179
4116.9231,4133.3333,4165.1282,4118.4615,4090.2564,4125.1282,4136.9231,4149.2308,4080.5128,4152.8205,4076.9231,4127.6923
4131.2821,4127.6923,4160.5128,4123.0769,4074.8718,4126.6667,4134.359,4138.4615,4079.4872,4153.3333,4069.7436,4133.8462
4097.9487,4114.8718,4146.1538,4107.1795,4071.2821,4127.6923,4122.0513,4138.4615,4060.5128,4130.7692,4040,4102.0513
4088.7179,4120,4151.7949,4103.0769,4083.0769,4126.1538,4127.1795,4151.7949,4057.9487,4134.359,4038.4615,4089.7436
4111.2821,4128.2051,4156.9231,4111.2821,4077.4359,4124.1026,4137.4359,4146.6667,4079.4872,4144.1026,4055.8974,4110.2564
4115.8974,4125.1282,4155.8974,4114.359,4056.4103,4120,4134.8718,4127.6923,4080.5128,4130.2564,4052.3077,4111.2821
4106.1538,4117.9487,4154.8718,4108.7179,4057.9487,4127.1795,4131.2821,4127.6923,4074.8718,4120,4037.9487,4085.641
4104.1026,4117.9487,4154.8718,4099.4872,4060.5128,4132.8205,4132.3077,4141.5385,4088.7179,4131.2821,4035.8974,4089.2308
4104.6154,4115.8974,4154.8718,4092.3077,4048.7179,4125.641,4125.641,4143.0769,4084.1026,4130.7692,4028.7179,4107.1795
4111.7949,4117.9487,4164.6154,4103.0769,4063.5897,4123.0769,4125.641,4140,4081.0256,4128.7179,4025.1282,4105.641
4126.6667,4125.641,4175.8974,4116.9231,4068.2051,4120.5128,4129.7436,4137.9487,4094.359,4144.1026,4048.7179,4110.7692
4129.7436,4121.0256,4169.2308,4111.7949,4053.3333,4118.9744,4125.1282,4138.9744,4094.8718,4151.2821,4046.6667,4121.0256
4117.4359,4117.9487,4167.1795,4106.1538,4080.5128,4132.3077,4131.7949,4151.7949,4112.3077,4137.4359,4029.7436,4118.4615
4108.7179,4121.0256,4172.3077,4110.2564,4104.6154,4141.5385,4139.4872,4150.2564,4122.5641,4130.2564,4038.9744,4113.3333
4106.6667,4118.4615,4160,4106.1538,4079.4872,4131.7949,4130.2564,4133.8462,4085.641,4131.7949,4033.3333,4099.4872
4106.1538,4115.3846,4148.7179,4102.0513,4073.3333,4133.8462,4132.3077,4135.3846,4068.7179,4120,4016.9231,4086.1538
4107.6923,4118.9744,4153.8462,4106.1538,4073.8462,4137.4359,4139.4872,4140,4107.1795,4107.1795,4026.6667,4091.2821
4103.5897,4123.0769,4153.3333,4103.5897,4049.2308,4122.0513,4129.2308,4140.5128,4110.7692,4112.8205,4027.6923,4093.8462
4102.0513,4120.5128,4151.2821,4097.4359,4063.5897,4123.5897,4126.6667,4146.6667,4067.1795,4136.4103,4009.7436,4100.5128
4115.8974,4119.4872,4161.0256,4107.6923,4103.5897,4143.5897,4145.1282,4147.6923,4081.5385,4150.7692,4021.0256,4119.4872
4113.8462,4121.0256,4155.8974,4109.2308,4076.9231,4141.0256,4142.5641,4138.4615,4122.5641,4131.7949,4034.8718,4110.2564
4101.0256,4117.4359,4143.0769,4096.9231,4030.2564,4118.9744,4120.5128,4133.3333,4117.9487,4114.359,4032.3077,4092.8205
4109.2308,4113.8462,4150.2564,4101.5385,4062.0513,4115.8974,4124.6154,4139.4872,4098.9744,4130.2564,4026.1538,4105.641
4119.4872,4120,4159.4872,4111.2821,4109.7436,4129.7436,4138.4615,4140,4093.3333,4144.6154,4016.9231,4111.7949
4107.1795,4119.4872,4152.3077,4102.0513,4092.8205,4135.3846,4134.359,4124.6154,4090.7692,4127.6923,4008.7179,4097.4359
4087.6923,4107.1795,4135.8974,4087.6923,4073.3333,4137.4359,4123.5897,4118.9744,4096.4103,4104.6154,4003.5897,4087.6923
4075.8974,4104.6154,4128.2051,4085.1282,4071.7949,4135.8974,4119.4872,4135.3846,4076.4103,4106.6667,3992.8205,4073.8462
4093.3333,4122.5641,4142.0513,4099.4872,4057.4359,4124.1026,4127.6923,4144.1026,4050.7692,4133.8462,3993.3333,4087.1795
4132.8205,4131.7949,4163.0769,4116.9231,4065.641,4120.5128,4144.6154,4140.5128,4104.1026,4148.7179,4026.6667,4129.2308
4123.0769,4114.8718,4153.3333,4106.6667,4097.9487,4143.5897,4147.6923,4135.8974,4139.4872,4128.7179,4026.1538,4114.359
4086.1538,4107.6923,4131.2821,4088.2051,4092.3077,4155.3846,4136.4103,4136.4103,4088.2051,4110.2564,3988.2051,4075.8974
4098.4615,4120,4144.1026,4100,4070.2564,4132.3077,4133.8462,4149.2308,4078.9744,4127.1795,3989.7436,4092.3077
4116.9231,4120,4155.8974,4111.2821,4052.3077,4107.1795,4129.2308,4140,4121.0256,4130.2564,4013.3333,4115.3846
4100,4112.3077,4141.5385,4101.5385,4043.0769,4109.2308,4122.0513,4114.359,4101.5385,4117.4359,4005.1282,4101.0256
4096.9231,4115.3846,4137.9487,4095.3846,4075.8974,4132.3077,4129.2308,4121.0256,4057.4359,4125.641,3993.3333,4093.3333
4110.7692,4121.0256,4141.5385,4094.8718,4095.3846,4138.9744,4131.2821,4137.4359,4078.9744,4124.1026,3996.4103,4095.3846
4099.4872,4116.9231,4132.8205,4093.3333,4070.7692,4127.6923,4121.5385,4133.8462,4115.8974,4118.4615,3983.0769,4093.3333
4093.3333,4118.9744,4135.3846,4102.0513,4068.7179,4120,4122.5641,4134.359,4121.5385,4134.8718,3997.4359,4104.6154
4109.7436,4126.1538,4143.0769,4108.7179,4086.6667,4122.0513,4135.8974,4146.6667,4123.5897,4140.5128,4022.0513,4114.359
4108.2051,4119.4872,4127.1795,4100,4078.4615,4129.2308,4135.3846,4147.1795,4118.9744,4118.4615,3996.4103,4104.6154
4094.8718,4116.4103,4114.8718,4094.359,4069.2308,4131.7949,4124.6154,4141.5385,4090.2564,4115.3846,3966.1538,4086.1538
4100.5128,4123.5897,4129.7436,4103.5897,4075.8974,4127.1795,4122.0513,4135.8974,4099.4872,4123.0769,4001.0256,4094.359
4103.5897,4122.5641,4138.4615,4108.7179,4073.8462,4121.0256,4128.2051,4133.8462,4120.5128,4118.9744,4019.4872,4112.8205
4092.3077,4118.4615,4126.1538,4098.9744,4077.4359,4125.641,4126.6667,4133.3333,4082.5641,4121.0256,3958.4615,4099.4872
4094.8718,4116.9231,4115.3846,4088.2051,4076.4103,4123.0769,4111.7949,4118.4615,4068.2051,4111.7949,3951.2821,4078.4615
4105.641,4121.5385,4121.5385,4090.7692,4067.1795,4108.2051,4110.7692,4118.4615,4108.2051,4103.5897,3998.4615,4088.2051
4108.7179,4130.2564,4127.6923,4095.8974,4078.4615,4110.7692,4123.0769,4144.1026,4115.8974,4122.0513,3987.6923,4112.3077
4107.1795,4130.2564,4124.6154,4093.3333,4089.7436,4122.0513,4124.1026,4148.7179,4095.3846,4131.2821,3969.7436,4113.8462
4098.9744,4124.6154,4122.5641,4093.8462,4082.5641,4123.0769,4121.5385,4139.4872,4099.4872,4120,3998.4615,4100.5128
4098.4615,4122.5641,4123.0769,4095.8974,4075.8974,4124.1026,4125.641,4139.4872,4096.9231,4122.0513,3996.9231,4106.1538
4106.1538,4123.0769,4123.0769,4092.3077,4072.3077,4121.0256,4121.0256,4133.3333,4073.8462,4126.6667,3962.0513,4116.4103
4113.8462,4125.641,4126.1538,4097.4359,4061.5385,4107.1795,4115.3846,4129.2308,4078.4615,4120,3977.4359,4109.2308
4117.4359,4126.6667,4130.2564,4106.1538,4073.8462,4109.7436,4123.0769,4139.4872,4092.3077,4128.7179,3992.3077,4112.8205
4105.1282,4125.641,4125.641,4093.3333,4093.8462,4127.6923,4123.5897,4135.8974,4076.4103,4123.5897,3961.0256,4118.4615
4102.5641,4130.7692,4127.1795,4089.7436,4082.5641,4126.6667,4120.5128,4127.1795,4062.5641,4108.7179,3957.9487,4109.2308
4124.6154,4134.8718,4142.0513,4111.2821,4078.4615,4119.4872,4127.1795,4137.4359,4083.0769,4128.7179,3986.1538,4122.5641
4120.5128,4126.1538,4138.4615,4109.2308,4083.0769,4127.1795,4125.1282,4139.4872,4082.5641,4138.4615,3977.9487,4130.7692
4102.5641,4118.4615,4121.5385,4090.7692,4068.7179,4128.2051,4117.4359,4133.3333,4049.2308,4120,3961.0256,4108.2051
4116.9231,4130.2564,4119.4872,4097.4359,4068.7179,4120.5128,4121.5385,4137.4359,4050.7692,4114.359,3967.6923,4105.1282
4125.1282,4134.8718,4125.1282,4107.6923,4089.2308,4120.5128,4124.1026,4141.0256,4060.5128,4126.1538,3961.5385,4119.4872
4112.3077,4125.1282,4127.6923,4108.2051,4092.8205,4123.0769,4123.5897,4143.0769,4036.9231,4136.4103,3950.7692,4107.1795
4106.1538,4126.6667,4127.6923,4110.7692,4073.8462,4112.8205,4127.6923,4133.8462,4039.4872,4128.2051,3970.2564,4101.0256
4092.3077,4131.2821,4119.4872,4101.5385,4064.6154,4108.2051,4123.5897,4126.1538,4063.5897,4111.7949,3967.1795,4113.8462
4082.5641,4130.7692,4107.1795,4090.7692,4078.9744,4128.2051,4120,4132.8205,4046.1538,4111.7949,3937.4359,4106.1538
4106.1538,4134.359,4106.1538,4101.0256,4096.4103,4143.0769,4127.6923,4136.9231,4038.4615,4120.5128,3946.6667,4094.8718
4123.5897,4136.9231,4115.3846,4112.8205,4098.4615,4133.8462,4130.2564,4143.0769,4068.2051,4122.5641,3979.4872,4112.3077
4109.7436,4131.2821,4118.4615,4104.1026,4084.1026,4122.0513,4128.7179,4153.8462,4068.2051,4129.7436,3991.7949,4127.6923
4100.5128,4125.1282,4108.2051,4089.7436,4069.2308,4118.4615,4129.2308,4147.1795,4047.6923,4132.3077,3975.3846,4111.7949
4108.2051,4127.1795,4102.5641,4095.3846,4084.6154,4126.6667,4129.7436,4132.3077,4052.3077,4116.9231,3957.4359,4098.4615
4105.1282,4124.1026,4105.641,4104.1026,4095.3846,4131.7949,4126.1538,4135.8974,4054.359,4112.3077,3952.3077,4100
4086.6667,4121.0256,4100,4095.3846,4052.8205,4106.1538,4115.3846,4131.7949,4046.6667,4115.3846,3963.5897,4096.9231
4093.8462,4130.2564,4100,4092.8205,4045.641,4089.7436,4112.3077,4129.7436,4052.3077,4122.5641,3979.4872,4104.6154
4111.2821,4130.7692,4103.5897,4100.5128,4106.6667,4127.1795,4122.5641,4136.4103,4052.3077,4125.1282,3964.6154,4108.7179
4093.8462,4122.0513,4095.8974,4097.9487,4117.4359,4150.2564,4124.6154,4126.1538,4036.4103,4107.6923,3938.4615,4086.1538
4090.7692,4128.2051,4103.5897,4103.0769,4082.5641,4119.4872,4118.9744,4124.1026,4049.7436,4117.9487,3954.359,4095.3846
4122.0513,4136.4103,4120,4116.9231,4069.7436,4096.9231,4123.5897,4144.1026,4066.1538,4146.6667,3981.0256,4124.6154
4121.5385,4132.3077,4111.2821,4110.7692,4063.0769,4108.2051,4122.0513,4145.641,4048.2051,4133.3333,3962.5641,4109.7436
4097.4359,4128.7179,4101.0256,4106.1538,4073.3333,4117.9487,4114.359,4128.7179,4034.8718,4111.7949,3954.359,4096.9231
4104.1026,4128.7179,4106.6667,4113.3333,4102.0513,4120.5128,4120.5128,4126.6667,4042.0513,4122.0513,3973.8462,4105.641
4113.3333,4129.2308,4105.641,4112.3077,4105.1282,4129.2308,4124.6154,4129.2308,4048.2051,4122.0513,3970.2564,4108.7179
4108.2051,4132.3077,4106.1538,4115.3846,4091.2821,4130.7692,4121.5385,4128.2051,4033.3333,4127.6923,3962.5641,4117.9487
4118.4615,4134.8718,4114.359,4125.1282,4088.2051,4116.9231,4123.0769,4137.9487,4028.2051,4151.2821,3980,4126.1538
4122.5641,4127.1795,4110.7692,4119.4872,4089.7436,4112.8205,4122.0513,4142.0513,4047.6923,4138.9744,3980,4112.8205
4103.5897,4121.0256,4101.0256,4105.641,4096.9231,4130.7692,4119.4872,4134.359,4063.5897,4113.3333,3963.0769,4106.6667
4105.641,4123.5897,4105.1282,4109.7436,4094.359,4140.5128,4130.7692,4134.359,4065.1282,4128.2051,3970.2564,4117.4359
4126.1538,4125.641,4107.1795,4114.359,4088.7179,4131.2821,4137.4359,4140.5128,4057.4359,4142.5641,3981.0256,4118.9744
4117.4359,4125.641,4095.3846,4104.1026,4109.2308,4138.4615,4129.2308,4134.8718,4047.6923,4126.1538,3972.8205,4110.7692
4109.2308,4128.2051,4099.4872,4105.641,4109.7436,4138.4615,4129.7436,4137.4359,4047.6923,4129.2308,3970.7692,4111.2821
4116.9231,4128.7179,4109.2308,4114.359,4073.8462,4114.8718,4130.2564,4140.5128,4053.3333,4142.5641,3967.6923,4108.7179
4100.5128,4122.0513,4093.3333,4101.0256,4073.3333,4119.4872,4117.9487,4121.0256,4041.5385,4118.4615,3952.8205,4096.9231
4098.9744,4125.641,4088.2051,4093.3333,4109.7436,4141.5385,4125.641,4123.0769,4041.0256,4105.1282,3961.0256,4100.5128
4133.8462,4143.0769,4111.2821,4109.7436,4111.7949,4129.7436,4143.0769,4150.7692,4063.0769,4131.2821,3981.0256,4119.4872
4136.4103,4138.9744,4116.4103,4112.8205,4088.2051,4109.2308,4131.2821,4147.1795,4062.0513,4142.0513,3974.359,4123.5897
4112.3077,4123.0769,4103.5897,4103.5897,4088.7179,4118.4615,4116.9231,4128.2051,4063.5897,4126.6667,3967.6923,4109.7436
4114.359,4122.5641,4101.0256,4102.0513,4104.6154,4130.7692,4124.1026,4136.4103,4069.2308,4120,3967.6923,4094.359
4122.5641,4124.6154,4100,4102.5641,4108.2051,4128.2051,4125.641,4137.9487,4051.7949,4123.0769,3958.9744,4095.8974
4124.6154,4129.2308,4101.0256,4105.1282,4096.9231,4118.9744,4120,4126.6667,4047.6923,4128.7179,3963.5897,4118.9744
4125.1282,4134.359,4109.2308,4111.2821,4086.6667,4114.8718,4123.0769,4132.8205,4067.1795,4128.7179,3982.0513,4121.0256
4107.6923,4127.6923,4102.0513,4107.6923,4091.2821,4124.1026,4124.1026,4135.3846,4060.5128,4115.8974,3975.8974,4092.8205
4106.1538,4123.0769,4093.8462,4104.1026,4100.5128,4125.641,4121.0256,4134.359,4038.4615,4116.9231,3955.8974,4093.3333
4133.3333,4128.2051,4102.5641,4106.6667,4102.0513,4121.5385,4123.0769,4146.6667,4044.1026,4128.7179,3960,4110.2564
4145.641,4131.7949,4110.2564,4112.8205,4105.641,4127.1795,4128.2051,4141.0256,4060.5128,4121.5385,3982.5641,4107.1795
4136.9231,4131.2821,4107.6923,4122.5641,4108.2051,4131.7949,4126.6667,4118.4615,4062.5641,4116.4103,3984.1026,4110.2564
4123.5897,4128.7179,4108.7179,4124.1026,4104.1026,4134.359,4123.5897,4125.641,4061.0256,4128.7179,3969.2308,4120
4125.641,4127.6923,4118.4615,4123.5897,4105.641,4135.3846,4126.1538,4144.1026,4065.641,4140.5128,3980.5128,4121.0256
4149.2308,4130.7692,4124.1026,4134.359,4102.5641,4127.1795,4127.6923,4138.4615,4071.2821,4145.1282,4001.5385,4129.7436
4149.2308,4130.2564,4114.8718,4132.8205,4084.1026,4115.3846,4126.6667,4139.4872,4058.4615,4145.1282,3981.5385,4129.7436
4113.3333,4120,4096.4103,4110.7692,4084.1026,4123.0769,4122.0513,4136.4103,4038.4615,4126.6667,3951.7949,4105.1282
4102.5641,4117.4359,4092.3077,4102.5641,4090.2564,4128.7179,4113.3333,4114.8718,4035.3846,4106.6667,3956.4103,4087.1795
4116.9231,4129.7436,4107.1795,4113.3333,4075.8974,4110.2564,4113.3333,4121.5385,4045.641,4120.5128,3960.5128,4100
4128.7179,4135.8974,4114.8718,4126.1538,4090.2564,4109.7436,4124.1026,4139.4872,4065.1282,4139.4872,3968.2051,4118.9744
4132.8205,4127.1795,4106.6667,4123.0769,4110.2564,4128.7179,4126.6667,4136.9231,4051.2821,4133.8462,3971.2821,4111.7949
4122.0513,4121.0256,4102.0513,4107.1795,4077.4359,4124.1026,4114.359,4132.8205,4018.4615,4125.641,3946.6667,4088.2051
4122.5641,4130.7692,4111.2821,4109.2308,4070.2564,4112.3077,4111.2821,4134.8718,4036.4103,4136.9231,3951.2821,4101.5385
4139.4872,4132.3077,4106.6667,4122.5641,4107.1795,4127.6923,4120.5128,4134.359,4058.4615,4137.9487,3992.8205,4126.1538
4135.3846,4120.5128,4091.7949,4117.9487,4096.4103,4135.8974,4122.0513,4136.4103,4049.7436,4121.0256,3984.1026,4111.7949
4111.7949,4123.0769,4097.9487,4109.7436,4072.8205,4123.5897,4119.4872,4137.4359,4049.7436,4115.8974,3948.7179,4095.8974
4110.2564,4126.1538,4109.2308,4111.2821,4091.2821,4120,4121.5385,4132.8205,4049.2308,4123.0769,3960.5128,4104.6154
4126.6667,4122.0513,4107.1795,4113.3333,4101.0256,4120.5128,4125.1282,4138.4615,4042.5641,4129.2308,3977.9487,4104.6154
4133.8462,4124.1026,4101.0256,4110.2564,4086.6667,4118.9744,4124.1026,4136.9231,4067.6923,4125.641,3972.3077,4103.5897
4129.2308,4125.641,4100,4107.1795,4086.6667,4121.0256,4119.4872,4122.5641,4087.1795,4121.5385,3972.8205,4109.7436
4127.1795,4125.641,4102.5641,4109.7436,4108.2051,4123.5897,4121.0256,4126.6667,4075.3846,4126.6667,3974.8718,4109.2308
4129.7436,4127.6923,4108.2051,4115.3846,4108.7179,4118.4615,4122.0513,4143.5897,4077.4359,4137.9487,3972.3077,4109.2308
4114.359,4120.5128,4099.4872,4108.2051,4076.4103,4115.8974,4110.2564,4140,4061.5385,4128.7179,3960,4101.0256
4102.0513,4116.4103,4083.0769,4101.5385,4068.7179,4118.4615,4104.1026,4123.0769,4048.2051,4094.359,3947.6923,4077.9487
4126.6667,4124.1026,4095.3846,4118.4615,4100.5128,4117.9487,4118.4615,4130.7692,4074.8718,4103.0769,3964.1026,4090.2564
4140.5128,4127.6923,4108.7179,4127.6923,4114.8718,4125.1282,4130.7692,4139.4872,4081.5385,4134.359,3977.9487,4113.3333
4111.2821,4123.5897,4101.5385,4112.3077,4104.1026,4136.4103,4128.2051,4132.8205,4070.2564,4123.0769,3956.4103,4094.8718
4094.8718,4123.0769,4095.8974,4103.0769,4096.4103,4127.1795,4123.5897,4138.4615,4066.1538,4109.2308,3949.2308,4077.9487
4111.7949,4125.641,4094.359,4109.7436,4078.4615,4109.2308,4119.4872,4134.8718,4069.7436,4116.9231,3971.7949,4094.8718
4127.6923,4129.7436,4092.8205,4115.8974,4071.2821,4113.8462,4118.9744,4116.4103,4101.5385,4117.4359,3970.2564,4105.1282
4124.6154,4130.2564,4095.3846,4113.8462,4097.4359,4132.3077,4123.5897,4127.1795,4115.8974,4113.8462,3952.8205,4090.2564
4111.2821,4130.2564,4093.8462,4107.1795,4111.7949,4136.9231,4124.1026,4148.7179,4066.6667,4115.3846,3965.1282,4085.1282
4112.3077,4130.2564,4093.8462,4104.1026,4105.641,4136.9231,4126.6667,4136.4103,4060.5128,4123.0769,3985.1282,4105.1282
4128.2051,4126.6667,4105.641,4109.2308,4102.0513,4133.3333,4138.4615,4140,4115.8974,4145.1282,3972.8205,4117.9487
4133.8462,4121.5385,4107.6923,4112.8205,4078.9744,4118.4615,4140,4159.4872,4112.3077,4140.5128,3958.9744,4105.641
4108.7179,4117.9487,4089.7436,4102.5641,4056.9231,4115.8974,4125.641,4134.8718,4078.9744,4094.359,3978.9744,4086.1538
4088.7179,4126.1538,4084.6154,4097.4359,4088.2051,4137.4359,4122.0513,4118.9744,4066.1538,4100,3974.8718,4087.1795
4107.1795,4135.8974,4095.3846,4103.5897,4118.4615,4144.1026,4132.8205,4137.4359,4062.0513,4138.4615,3933.8462,4092.3077
4130.7692,4133.3333,4097.9487,4104.1026,4100.5128,4125.1282,4138.4615,4152.3077,4072.3077,4129.2308,3947.1795,4085.641
4130.2564,4132.3077,4096.4103,4105.641,4093.8462,4121.5385,4134.359,4150.2564,4088.2051,4110.7692,4016.9231,4098.9744
4118.9744,4137.9487,4093.8462,4104.1026,4085.641,4129.7436,4123.0769,4123.5897,4087.6923,4116.9231,4015.8974,4125.1282
4109.7436,4136.9231,4092.8205,4091.2821,4063.5897,4127.1795,4121.5385,4134.8718,4065.1282,4144.1026,3928.7179,4107.6923
4109.2308,4132.8205,4097.4359,4092.3077,4085.641,4129.2308,4137.4359,4177.9487,4053.8462,4153.8462,3924.1026,4073.8462
4124.6154,4136.9231,4106.1538,4105.641,4114.359,4130.7692,4141.5385,4152.8205,4091.2821,4111.7949,4028.7179,4093.3333
4126.1538,4132.8205,4113.8462,4101.5385,4095.3846,4121.5385,4130.7692,4113.8462,4118.9744,4111.2821,4033.8462,4125.1282
4091.7949,4115.8974,4102.5641,4082.0513,4074.8718,4121.5385,4124.1026,4143.5897,4027.1795,4159.4872,3913.3333,4092.8205
4069.7436,4116.4103,4076.4103,4076.4103,4074.8718,4128.2051,4114.359,4140.5128,3981.5385,4112.8205,3905.1282,4043.5897
4105.641,4132.3077,4087.1795,4098.9744,4074.8718,4116.4103,4109.2308,4105.641,4064.6154,4056.4103,4021.0256,4066.1538
4147.1795,4140,4126.1538,4124.6154,4092.8205,4107.6923,4123.5897,4127.6923,4039.4872,4112.8205,4051.2821,4106.6667
4141.0256,4140.5128,4129.7436,4123.0769,4117.4359,4125.1282,4132.3077,4130.7692,4046.1538,4131.2821,4044.6154,4113.3333
4124.6154,4136.9231,4110.7692,4113.8462,4113.8462,4137.4359,4124.6154,4103.5897,4182.0513,4079.4872,4121.5385,4107.1795
4118.9744,4128.2051,4097.4359,4111.7949,4107.1795,4139.4872,4122.0513,4116.9231,4102.0513,4070.2564,4115.3846,4077.9487
4111.2821,4123.5897,4087.6923,4104.1026,4107.1795,4142.0513,4123.5897,4124.1026,3945.641,4077.4359,4027.6923,4060
4116.4103,4130.2564,4095.8974,4110.2564,4092.8205,4127.1795,4122.5641,4110.7692,4054.359,4100,4029.2308,4105.641
4127.1795,4133.3333,4101.5385,4122.5641,4078.9744,4112.3077,4121.0256,4106.6667,4180.5128,4103.0769,4082.5641,4125.641
4115.8974,4128.2051,4080.5128,4115.3846,4091.7949,4128.7179,4118.9744,4097.9487,4111.2821,4033.8462,4079.4872,4060.5128
4104.6154,4129.7436,4070.7692,4117.9487,4117.9487,4142.5641,4118.9744,4084.1026,4121.5385,3987.1795,4094.8718,4027.6923
4108.7179,4126.6667,4082.5641,4125.1282,4125.641,4130.2564,4121.5385,4100,4213.3333,4036.4103,4121.5385,4071.7949
4109.2308,4120.5128,4085.641,4111.7949,4108.7179,4123.5897,4122.0513,4113.8462,4183.5897,4089.2308,4067.1795,4105.1282
4114.8718,4130.2564,4085.1282,4113.3333,4087.1795,4123.5897,4121.5385,4100.5128,4130.7692,4086.1538,4052.3077,4089.2308
4119.4872,4136.4103,4081.0256,4131.2821,4090.7692,4121.5385,4122.0513,4100,4152.3077,4049.7436,4087.1795,4049.2308
4109.2308,4127.6923,4064.6154,4120.5128,4109.7436,4135.3846,4122.5641,4110.2564,4198.4615,4018.4615,4088.2051,4049.7436
4101.0256,4122.5641,4060.5128,4101.5385,4105.1282,4136.4103,4116.9231,4096.9231,4196.9231,4041.5385,4089.7436,4083.0769
4104.1026,4127.1795,4071.7949,4110.7692,4088.2051,4112.3077,4108.7179,4086.6667,4220.5128,4070.2564,4115.3846,4088.7179
4111.2821,4130.7692,4081.5385,4125.641,4091.2821,4109.2308,4114.8718,4119.4872,4236.9231,4086.1538,4072.3077,4090.7692
4110.2564,4127.6923,4073.8462,4123.0769,4097.4359,4126.6667,4122.0513,4137.4359,4124.1026,4066.6667,3996.9231,4062.5641
4105.641,4125.1282,4060.5128,4116.9231,4085.1282,4126.1538,4113.3333,4082.5641,4118.4615,4002.5641,4070.7692,4019.4872
4103.0769,4123.0769,4069.2308,4119.4872,4082.0513,4120,4108.2051,4064.6154,4279.4872,3997.9487,4145.641,4051.2821
4108.7179,4124.6154,4085.641,4126.6667,4101.0256,4121.5385,4121.5385,4136.4103,4286.6667,4071.7949,4071.7949,4104.6154
4118.9744,4126.6667,4078.4615,4123.5897,4107.6923,4128.2051,4127.6923,4139.4872,4129.7436,4097.4359,4026.6667,4074.8718
4118.4615,4120,4067.1795,4114.8718,4093.8462,4137.9487,4119.4872,4071.7949,4136.9231,4065.1282,4083.0769,4052.8205
4117.9487,4118.4615,4078.4615,4117.9487,4089.7436,4133.8462,4120.5128,4087.6923,4280.5128,4064.1026,4094.359,4096.4103
4119.4872,4128.2051,4083.5897,4126.1538,4099.4872,4121.5385,4127.1795,4124.6154,4280.5128,4048.2051,4078.9744,4092.8205
4111.2821,4128.7179,4072.8205,4123.5897,4088.7179,4120.5128,4118.4615,4102.5641,4150.7692,4029.2308,4080.5128,4056.9231
4103.5897,4124.1026,4068.7179,4119.4872,4081.5385,4123.5897,4106.6667,4090.7692,4152.8205,4035.8974,4061.0256,4061.0256
4121.0256,4125.641,4075.3846,4122.0513,4109.7436,4128.2051,4111.7949,4090.7692,4285.641,4064.1026,4069.2308,4097.9487
4138.4615,4126.1538,4080.5128,4125.641,4123.0769,4135.3846,4124.6154,4090.2564,4261.5385,4103.0769,4080.5128,4100
4117.4359,4127.1795,4073.8462,4122.0513,4101.0256,4140,4124.6154,4101.5385,4147.6923,4044.6154,4086.1538,4034.359
4106.6667,4128.2051,4070.7692,4114.359,4086.6667,4134.8718,4119.4872,4105.641,4205.1282,4002.0513,4106.6667,4048.2051
4132.3077,4127.6923,4088.2051,4115.3846,4090.7692,4126.6667,4123.5897,4113.8462,4236.4103,4111.7949,4041.5385,4149.7436
4136.9231,4128.7179,4095.3846,4123.5897,4097.4359,4129.2308,4128.2051,4122.0513,4159.4872,4142.5641,4003.0769,4121.5385
4117.9487,4131.7949,4082.5641,4125.1282,4111.2821,4143.5897,4127.6923,4104.6154,4241.5385,4022.0513,4123.5897,4037.9487
4130.2564,4129.7436,4087.1795,4122.5641,4112.3077,4140.5128,4127.1795,4110.7692,4290.2564,4031.2821,4142.5641,4080.5128
4144.6154,4125.1282,4097.4359,4122.0513,4096.4103,4122.5641,4125.1282,4130.7692,4152.3077,4107.1795,4015.3846,4113.3333
4136.9231,4130.2564,4092.3077,4123.5897,4102.0513,4121.5385,4123.5897,4105.641,4156.9231,4068.2051,4017.9487,4077.4359
4142.5641,4132.3077,4093.3333,4125.641,4120,4130.7692,4122.0513,4083.5897,4263.5897,4070.2564,4099.4872,4088.7179
4144.6154,4127.1795,4098.9744,4125.641,4102.0513,4128.2051,4117.9487,4095.8974,4245.641,4109.7436,4078.9744,4114.359
4124.6154,4120.5128,4092.3077,4120.5128,4078.4615,4117.4359,4115.8974,4108.7179,4189.7436,4062.0513,4041.5385,4081.5385
4120,4120,4089.7436,4117.4359,4093.3333,4117.4359,4122.0513,4113.3333,4167.1795,4049.2308,4036.9231,4050.7692
4127.1795,4125.641,4091.7949,4114.359,4096.4103,4126.1538,4122.5641,4105.1282,4169.7436,4092.8205,4030.7692,4066.6667
4122.0513,4123.0769,4089.7436,4112.3077,4061.0256,4122.5641,4111.7949,4106.6667,4235.8974,4071.7949,4046.6667,4094.8718
4128.2051,4124.1026,4103.5897,4128.2051,4072.8205,4115.3846,4113.8462,4116.9231,4231.7949,4045.641,4077.4359,4095.3846
4150.2564,4131.2821,4124.1026,4148.2051,4137.9487,4130.7692,4132.8205,4119.4872,4141.5385,4106.6667,4065.641,4095.8974
4151.2821,4127.6923,4116.9231,4139.4872,4149.7436,4148.2051,4134.8718,4111.2821,4198.4615,4126.6667,4032.8205,4113.8462
4131.2821,4123.5897,4100.5128,4121.5385,4109.2308,4136.9231,4120.5128,4101.5385,4301.5385,4056.4103,4055.3846,4081.5385
4135.8974,4129.2308,4108.2051,4126.1538,4106.6667,4124.6154,4119.4872,4101.5385,4245.1282,4070.7692,4049.7436,4072.8205
4141.5385,4127.1795,4107.6923,4124.1026,4115.3846,4131.7949,4117.9487,4101.5385,4162.5641,4124.6154,3993.8462,4100.5128
4118.9744,4119.4872,4091.2821,4104.1026,4076.4103,4122.0513,4105.641,4112.3077,4170.7692,4071.2821,4001.0256,4067.1795
4124.1026,4125.1282,4097.4359,4108.7179,4064.6154,4106.6667,4110.2564,4121.0256,4222.0513,4034.359,4069.2308,4053.3333
4151.7949,4128.7179,4112.8205,4129.2308,4116.9231,4129.2308,4129.7436,4117.4359,4245.641,4100,4056.9231,4110.2564
4149.2308,4124.6154,4107.6923,4133.3333,4142.0513,4155.8974,4132.3077,4110.2564,4251.7949,4121.5385,4000.5128,4134.359
4136.4103,4125.1282,4103.5897,4127.6923,4120.5128,4145.1282,4125.1282,4115.3846,4208.2051,4081.0256,4010.7692,4100
4139.4872,4128.2051,4108.7179,4128.2051,4118.9744,4130.7692,4126.6667,4123.0769,4181.0256,4057.4359,4043.0769,4069.7436
4131.7949,4121.5385,4101.0256,4125.1282,4120.5128,4138.9744,4125.1282,4097.9487,4212.3077,4049.7436,4043.5897,4062.5641
4107.6923,4115.8974,4086.1538,4113.3333,4095.3846,4137.9487,4118.9744,4085.1282,4180.5128,4070.7692,4000.5128,4062.5641
4114.8718,4122.5641,4087.1795,4114.359,4094.359,4126.6667,4122.5641,4110.7692,4160,4086.1538,4002.5641,4076.9231
4137.9487,4128.7179,4095.8974,4126.1538,4111.2821,4126.1538,4123.5897,4120.5128,4222.0513,4049.2308,4064.1026,4082.0513
4136.9231,4128.7179,4103.0769,4125.641,4110.2564,4127.6923,4115.3846,4102.0513,4247.1795,4048.2051,4062.0513,4093.8462
4132.8205,4127.1795,4107.6923,4124.1026,4108.2051,4123.0769,4115.8974,4101.5385,4214.359,4108.7179,4021.0256,4115.3846
4142.5641,4128.7179,4107.1795,4134.359,4113.3333,4121.0256,4120,4117.9487,4227.6923,4109.2308,4024.6154,4112.8205
4148.7179,4126.6667,4107.6923,4136.4103,4105.1282,4117.9487,4116.4103,4117.9487,4243.0769,4075.8974,4043.0769,4098.4615
4140,4122.0513,4107.6923,4125.641,4103.5897,4118.4615,4116.9231,4103.5897,4232.3077,4081.0256,4036.4103,4098.9744
4130.2564,4123.0769,4095.8974,4119.4872,4125.1282,4135.8974,4122.5641,4103.0769,4232.8205,4087.1795,4020,4112.3077
4129.7436,4124.1026,4092.8205,4117.9487,4124.6154,4141.0256,4123.0769,4120.5128,4207.1795,4087.6923,3993.3333,4103.0769
4131.2821,4125.641,4098.4615,4120,4100.5128,4120,4121.0256,4117.4359,4208.7179,4082.5641,3988.2051,4074.359
4124.6154,4124.1026,4093.8462,4124.1026,4095.8974,4113.8462,4121.5385,4102.0513,4232.3077,4078.9744,4002.5641,4078.4615
4122.5641,4122.0513,4092.3077,4126.1538,4108.2051,4129.7436,4122.0513,4113.3333,4210.2564,4093.8462,3998.4615,4112.3077
4132.8205,4127.1795,4106.6667,4127.1795,4111.7949,4131.7949,4124.6154,4131.2821,4192.8205,4110.7692,3983.5897,4121.0256
4141.5385,4128.2051,4109.7436,4125.641,4109.7436,4121.0256,4122.5641,4122.0513,4208.7179,4097.4359,3986.6667,4094.359
4148.2051,4125.641,4103.5897,4125.641,4111.7949,4119.4872,4120,4117.4359,4230.2564,4095.8974,4005.1282,4104.6154
4156.9231,4126.6667,4111.7949,4129.7436,4110.2564,4124.1026,4125.1282,4134.359,4242.5641,4129.7436,4004.6154,4149.2308
4143.0769,4122.5641,4106.6667,4120.5128,4112.3077,4135.8974,4127.6923,4140,4201.5385,4129.7436,3959.4872,4135.8974
4123.0769,4120,4091.2821,4107.6923,4112.8205,4141.5385,4129.7436,4128.7179,4130.2564,4094.359,3944.6154,4094.359
4125.1282,4124.6154,4098.4615,4116.9231,4098.4615,4126.1538,4133.3333,4115.3846,4137.9487,4084.6154,3982.0513,4098.9744
4129.2308,4125.641,4106.6667,4128.2051,4093.8462,4118.9744,4137.9487,4131.2821,4169.2308,4109.2308,3970.2564,4114.8718
4124.6154,4121.0256,4093.8462,4116.9231,4109.2308,4139.4872,4138.4615,4143.0769,4128.2051,4116.9231,3931.2821,4103.0769
4113.3333,4116.9231,4084.6154,4101.0256,4104.1026,4143.5897,4128.2051,4117.9487,4101.5385,4095.8974,3941.0256,4093.8462
4117.4359,4127.6923,4102.5641,4114.8718,4090.7692,4121.5385,4127.6923,4122.0513,4139.4872,4105.641,3957.4359,4107.6923
4145.1282,4137.4359,4117.9487,4140,4109.7436,4127.6923,4141.5385,4158.9744,4159.4872,4143.0769,3946.6667,4131.2821
4158.9744,4129.7436,4114.8718,4136.9231,4129.7436,4148.7179,4143.0769,4146.1538,4152.3077,4142.5641,3954.359,4148.2051
4144.1026,4118.9744,4105.1282,4120.5128,4121.0256,4141.5385,4131.7949,4116.9231,4161.0256,4117.4359,3969.2308,4133.8462
4134.359,4120.5128,4106.6667,4127.6923,4121.0256,4132.8205,4132.3077,4144.6154,4161.5385,4133.8462,3941.0256,4128.7179
4146.1538,4127.6923,4118.4615,4144.1026,4126.1538,4135.3846,4140.5128,4166.1538,4149.7436,4164.1026,3928.7179,4156.4103
4133.8462,4124.6154,4113.3333,4135.3846,4102.5641,4129.2308,4135.3846,4131.2821,4147.1795,4144.1026,3948.2051,4145.641
4114.359,4116.9231,4096.4103,4118.9744,4088.2051,4124.6154,4126.6667,4116.4103,4132.3077,4125.1282,3924.6154,4116.4103
4125.1282,4117.9487,4091.7949,4121.5385,4098.4615,4124.6154,4125.1282,4131.7949,4110.7692,4137.9487,3884.1026,4118.9744
4124.6154,4117.4359,4091.7949,4121.5385,4097.9487,4122.0513,4123.5897,4125.641,4107.6923,4130.7692,3876.9231,4115.3846
4108.7179,4115.3846,4089.7436,4118.4615,4094.359,4129.2308,4124.1026,4123.0769,4107.6923,4116.4103,3871.2821,4104.1026
4120.5128,4123.0769,4094.359,4129.2308,4109.2308,4137.9487,4129.7436,4148.7179,4102.5641,4130.7692,3854.359,4119.4872
4143.0769,4128.7179,4095.8974,4132.8205,4109.2308,4128.2051,4131.2821,4155.3846,4102.5641,4145.1282,3850.7692,4128.7179
4140.5128,4124.1026,4095.8974,4126.6667,4087.6923,4116.9231,4126.6667,4133.8462,4100,4137.4359,3848.7179,4119.4872
4137.9487,4124.6154,4108.7179,4134.8718,4093.8462,4124.1026,4133.8462,4132.3077,4096.4103,4137.4359,3837.4359,4130.7692
4134.359,4127.1795,4109.2308,4138.4615,4120,4139.4872,4138.9744,4142.5641,4092.3077,4141.0256,3814.359,4136.4103
4120,4121.5385,4098.9744,4124.6154,4109.2308,4137.9487,4126.1538,4140.5128,4076.9231,4138.9744,3790.7692,4117.4359
4120.5128,4117.9487,4100.5128,4119.4872,4087.1795,4120.5128,4118.9744,4136.9231,4069.2308,4138.9744,3788.2051,4113.8462
4122.0513,4126.6667,4098.4615,4124.1026,4103.0769,4119.4872,4125.1282,4133.3333,4063.5897,4129.2308,3776.4103,4115.8974
4109.2308,4131.2821,4088.7179,4122.5641,4107.6923,4131.7949,4124.1026,4131.7949,4052.8205,4127.1795,3743.0769,4110.2564
4101.0256,4125.641,4089.2308,4124.1026,4073.8462,4125.1282,4119.4872,4134.359,4046.6667,4135.3846,3731.7949,4116.4103
4114.8718,4127.6923,4096.9231,4134.359,4080.5128,4115.3846,4129.2308,4137.4359,4048.2051,4141.5385,3753.3333,4135.3846
4121.0256,4129.2308,4097.4359,4140,4124.6154,4128.7179,4140.5128,4137.9487,4040.5128,4145.1282,3755.8974,4138.4615
4105.1282,4126.1538,4088.7179,4137.4359,4126.1538,4141.0256,4138.4615,4136.9231,4032.8205,4140.5128,3735.8974,4135.8974
4101.0256,4125.641,4083.5897,4135.8974,4106.6667,4132.3077,4134.359,4137.9487,4042.5641,4135.3846,3733.8462,4139.4872
4109.2308,4127.1795,4080,4137.4359,4103.0769,4124.1026,4129.2308,4144.1026,4031.2821,4132.3077,3722.5641,4126.6667
4097.4359,4128.2051,4069.7436,4137.9487,4085.641,4122.0513,4118.9744,4136.4103,4012.3077,4122.5641,3698.9744,4112.3077
4087.6923,4130.2564,4066.6667,4143.0769,4086.1538,4119.4872,4122.5641,4130.7692,4023.5897,4125.641,3704.1026,4127.6923
4107.6923,4137.4359,4081.0256,4155.8974,4124.6154,4128.7179,4140.5128,4147.6923,4043.0769,4151.7949,3724.6154,4157.9487
4115.3846,4134.8718,4083.5897,4157.4359,4118.4615,4137.9487,4139.4872,4153.8462,4041.0256,4159.4872,3718.4615,4162.0513
4090.7692,4123.5897,4063.5897,4140.5128,4072.8205,4126.1538,4120.5128,4136.4103,4015.8974,4132.8205,3695.3846,4135.8974
4085.1282,4124.6154,4056.4103,4134.359,4083.5897,4115.8974,4118.4615,4133.3333,4009.2308,4119.4872,3691.7949,4121.0256
4112.3077,4133.8462,4072.8205,4150.2564,4123.5897,4128.7179,4136.4103,4148.2051,4037.4359,4135.8974,3707.1795,4143.5897
4124.6154,4134.359,4086.6667,4160,4126.1538,4141.0256,4144.6154,4157.4359,4049.2308,4159.4872,3709.2308,4170.2564
4110.7692,4125.641,4077.9487,4153.8462,4121.0256,4138.4615,4137.4359,4150.7692,4028.2051,4155.3846,3694.359,4166.6667
4100.5128,4123.0769,4063.0769,4150.2564,4117.4359,4134.359,4132.3077,4131.7949,4027.1795,4133.8462,3684.6154,4149.7436
4095.8974,4120.5128,4063.5897,4153.8462,4109.7436,4135.3846,4136.9231,4133.8462,4042.0513,4135.3846,3676.4103,4146.6667
4091.7949,4117.4359,4067.6923,4153.8462,4113.8462,4134.8718,4139.4872,4158.4615,4032.3077,4141.5385,3665.1282,4148.7179
4086.1538,4123.0769,4057.4359,4143.5897,4103.5897,4123.0769,4130.7692,4149.7436,4018.4615,4124.1026,3663.5897,4135.8974
4076.9231,4126.1538,4048.2051,4133.3333,4090.7692,4122.0513,4123.5897,4130.2564,4019.4872,4117.4359,3656.4103,4125.1282
4085.1282,4126.6667,4058.4615,4138.9744,4115.8974,4138.4615,4131.7949,4140,4018.9744,4132.8205,3653.3333,4137.4359
4114.359,4132.8205,4075.8974,4154.8718,4137.4359,4141.5385,4139.4872,4150.2564,4024.1026,4145.641,3672.3077,4157.9487
4122.5641,4131.2821,4081.5385,4157.9487,4115.3846,4131.2821,4134.8718,4142.5641,4036.9231,4148.7179,3687.1795,4162.0513
4104.6154,4122.5641,4075.3846,4143.5897,4107.6923,4133.8462,4133.8462,4142.0513,4031.2821,4144.1026,3679.4872,4157.4359
4097.4359,4117.9487,4068.2051,4132.3077,4120.5128,4140.5128,4136.4103,4150.7692,4017.9487,4142.0513,3658.9744,4153.3333
4107.1795,4123.0769,4073.3333,4146.1538,4112.8205,4134.8718,4137.4359,4155.3846,4029.2308,4158.9744,3658.4615,4156.4103
4113.8462,4127.6923,4082.0513,4156.9231,4106.1538,4132.8205,4140.5128,4154.8718,4042.5641,4166.6667,3675.8974,4169.2308
4101.5385,4122.0513,4074.8718,4142.5641,4109.7436,4138.4615,4140,4145.641,4022.5641,4143.5897,3667.6923,4158.4615
4088.7179,4121.0256,4067.6923,4141.5385,4106.1538,4138.9744,4134.359,4142.5641,4007.6923,4137.4359,3645.1282,4132.8205
4102.0513,4130.7692,4073.8462,4160.5128,4104.6154,4134.8718,4133.3333,4153.3333,4015.3846,4156.4103,3652.8205,4137.9487
4116.4103,4133.8462,4078.9744,4161.5385,4105.1282,4125.641,4132.8205,4149.7436,4018.4615,4152.8205,3673.8462,4160.5128
4106.6667,4130.2564,4077.9487,4152.8205,4108.2051,4123.5897,4131.2821,4146.6667,4019.4872,4143.5897,3660,4159.4872
4102.0513,4126.6667,4078.4615,4154.8718,4123.5897,4138.9744,4132.8205,4150.7692,4014.8718,4148.7179,3637.4359,4147.6923
4121.0256,4128.7179,4087.1795,4157.9487,4128.2051,4142.0513,4136.4103,4152.3077,4009.2308,4156.9231,3647.1795,4161.5385
4130.7692,4133.8462,4094.8718,4155.3846,4120,4133.3333,4138.9744,4152.3077,4018.9744,4154.359,3669.7436,4174.8718
4117.4359,4131.2821,4086.1538,4153.8462,4121.0256,4138.9744,4137.4359,4146.6667,4026.1538,4142.5641,3665.641,4154.8718
4107.1795,4127.1795,4073.3333,4151.7949,4124.1026,4144.6154,4136.4103,4144.1026,4016.4103,4136.4103,3640.5128,4140
4109.7436,4126.1538,4074.359,4145.641,4117.4359,4135.3846,4140,4147.6923,4016.4103,4138.9744,3636.4103,4149.2308
4108.2051,4124.6154,4077.4359,4137.4359,4114.8718,4133.3333,4142.5641,4147.6923,4021.5385,4142.5641,3648.7179,4147.1795
4102.0513,4124.6154,4073.3333,4134.8718,4121.0256,4138.9744,4140,4144.6154,4018.4615,4136.9231,3646.6667,4131.2821
4107.1795,4124.1026,4072.3077,4134.8718,4120.5128,4136.4103,4135.3846,4145.1282,4028.7179,4135.3846,3636.4103,4135.8974
4123.0769,4128.2051,4084.6154,4135.3846,4120,4132.8205,4137.9487,4153.3333,4038.9744,4153.8462,3651.7949,4150.2564
4128.7179,4129.7436,4092.8205,4137.9487,4128.2051,4142.0513,4144.6154,4160,4033.3333,4167.1795,3681.0256,4154.8718
4119.4872,4127.6923,4081.5385,4136.4103,4127.6923,4148.2051,4145.641,4161.0256,4030.2564,4158.9744,3667.6923,4156.9231
4118.4615,4128.2051,4072.3077,4137.9487,4115.8974,4142.5641,4143.0769,4153.3333,4033.3333,4149.7436,3637.9487,4156.4103
4118.4615,4130.2564,4081.5385,4137.4359,4121.0256,4140,4141.5385,4148.2051,4019.4872,4151.7949,3637.9487,4151.7949
4114.359,4133.3333,4092.8205,4130.2564,4138.9744,4143.0769,4148.7179,4156.9231,4016.4103,4155.3846,3652.3077,4151.2821
4125.1282,4129.7436,4092.8205,4127.1795,4125.641,4137.4359,4149.2308,4160.5128,4034.359,4160,3653.3333,4154.8718
4123.0769,4121.0256,4076.9231,4118.9744,4091.2821,4131.7949,4134.359,4140.5128,4029.2308,4146.6667,3635.8974,4138.9744
4104.6154,4119.4872,4065.1282,4109.7436,4088.2051,4136.9231,4127.1795,4133.3333,4018.9744,4126.6667,3624.1026,4118.9744
4120.5128,4130.7692,4087.6923,4125.641,4119.4872,4134.8718,4137.4359,4155.8974,4039.4872,4151.2821,3644.1026,4138.4615
4152.8205,4142.5641,4112.8205,4147.1795,4140.5128,4134.8718,4148.2051,4164.6154,4057.4359,4183.0769,3677.9487,4168.7179
4158.9744,4140,4112.8205,4147.6923,4138.4615,4146.6667,4150.7692,4154.8718,4054.8718,4177.9487,3691.2821,4178.4615
4148.7179,4129.2308,4105.641,4139.4872,4135.8974,4149.7436,4148.7179,4155.3846,4046.1538,4171.2821,3674.8718,4175.3846
4131.7949,4123.0769,4096.4103,4128.2051,4130.2564,4142.0513,4141.5385,4153.3333,4023.0769,4167.1795,3646.6667,4150.7692
4115.8974,4126.1538,4082.0513,4119.4872,4113.8462,4136.9231,4133.3333,4141.5385,4002.0513,4147.6923,3633.3333,4124.6154
4117.4359,4131.7949,4074.8718,4121.0256,4116.4103,4134.8718,4130.7692,4138.9744,4011.7949,4141.5385,3636.9231,4130.7692
4125.641,4128.7179,4084.1026,4126.1538,4130.2564,4132.8205,4134.8718,4141.0256,4033.8462,4153.8462,3645.1282,4149.2308
4124.6154,4115.3846,4086.6667,4125.1282,4117.9487,4132.3077,4136.9231,4137.9487,4035.3846,4143.5897,3652.8205,4144.6154
4110.2564,4110.7692,4069.2308,4117.9487,4110.2564,4138.9744,4129.7436,4136.9231,4016.9231,4115.3846,3646.1538,4125.641
4110.7692,4122.0513,4069.7436,4122.0513,4121.0256,4145.1282,4131.7949,4149.7436,4023.5897,4130.2564,3643.5897,4132.3077
4138.4615,4130.2564,4098.9744,4137.4359,4111.7949,4135.8974,4145.1282,4157.9487,4045.1282,4167.1795,3662.0513,4161.0256
4142.5641,4125.1282,4099.4872,4131.2821,4110.2564,4131.7949,4143.5897,4148.2051,4040.5128,4164.6154,3668.2051,4163.5897
4114.8718,4116.4103,4072.8205,4112.8205,4134.359,4144.1026,4133.8462,4146.6667,4021.5385,4151.7949,3648.2051,4133.3333
4120.5128,4122.5641,4083.5897,4126.1538,4136.9231,4143.5897,4136.9231,4158.9744,4030.2564,4164.6154,3648.7179,4136.9231
4148.2051,4128.2051,4098.9744,4141.0256,4119.4872,4133.3333,4140.5128,4151.2821,4047.6923,4165.1282,3667.1795,4162.5641
4135.3846,4124.1026,4079.4872,4124.1026,4118.9744,4132.8205,4133.8462,4136.9231,4043.5897,4145.1282,3664.6154,4153.3333
4117.4359,4123.5897,4073.3333,4117.9487,4125.641,4132.8205,4131.2821,4145.1282,4042.0513,4143.5897,3657.9487,4136.9231
4131.2821,4128.2051,4093.8462,4132.3077,4124.6154,4132.8205,4136.9231,4152.8205,4043.5897,4156.4103,3659.4872,4142.5641
4134.8718,4126.6667,4094.8718,4130.2564,4122.5641,4135.8974,4137.4359,4134.8718,4038.9744,4151.7949,3653.8462,4140
4116.4103,4118.9744,4073.3333,4115.8974,4128.2051,4137.9487,4132.8205,4126.1538,4026.1538,4142.5641,3641.5385,4125.641
4124.1026,4124.6154,4075.3846,4123.5897,4135.3846,4140.5128,4142.0513,4151.2821,4032.3077,4160.5128,3655.8974,4135.3846
4148.7179,4130.2564,4102.5641,4140.5128,4133.3333,4144.1026,4158.4615,4171.7949,4065.1282,4186.1538,3692.3077,4159.4872
4146.6667,4124.1026,4108.2051,4142.0513,4128.7179,4144.1026,4158.9744,4170.2564,4077.4359,4184.1026,3691.7949,4163.5897
4133.8462,4128.2051,4093.3333,4139.4872,4113.3333,4137.9487,4144.6154,4158.4615,4062.0513,4170.7692,3668.7179,4151.2821
4140,4130.2564,4086.6667,4143.0769,4106.6667,4135.8974,4135.3846,4138.9744,4054.8718,4163.5897,3670.7692,4139.4872
4143.5897,4126.1538,4084.1026,4146.1538,4137.9487,4146.6667,4139.4872,4135.3846,4055.8974,4155.8974,3681.0256,4138.4615
4125.641,4128.2051,4074.8718,4142.5641,4135.8974,4146.6667,4141.5385,4147.6923,4049.7436,4154.359,3664.6154,4140.5128
4116.9231,4127.6923,4071.2821,4135.3846,4089.7436,4128.2051,4134.8718,4141.0256,4050.2564,4153.8462,3651.7949,4133.3333
4135.3846,4127.6923,4082.0513,4142.5641,4110.7692,4129.7436,4134.8718,4136.4103,4056.9231,4145.1282,3664.6154,4129.7436
4143.0769,4133.8462,4094.8718,4156.4103,4155.3846,4145.1282,4141.5385,4154.8718,4064.1026,4155.8974,3676.9231,4140
4126.6667,4131.2821,4093.3333,4147.6923,4120,4130.7692,4135.3846,4154.359,4069.2308,4167.1795,3680.5128,4135.8974
4123.5897,4119.4872,4081.5385,4137.9487,4092.8205,4120,4128.7179,4139.4872,4063.5897,4155.8974,3672.8205,4121.0256
4136.4103,4118.9744,4084.6154,4151.2821,4133.8462,4140,4133.8462,4146.1538,4069.2308,4155.3846,3675.8974,4131.7949
4144.1026,4128.2051,4095.8974,4161.5385,4152.8205,4144.1026,4140.5128,4157.9487,4091.7949,4170.7692,3698.9744,4152.3077
4139.4872,4128.2051,4089.7436,4156.4103,4126.6667,4124.6154,4140,4149.7436,4091.2821,4169.2308,3698.4615,4145.641
4129.7436,4120.5128,4075.8974,4152.8205,4109.7436,4120,4130.2564,4137.4359,4073.8462,4154.359,3678.9744,4131.7949
4122.5641,4117.4359,4072.3077,4148.2051,4107.1795,4130.7692,4124.1026,4136.4103,4087.6923,4149.7436,3689.7436,4134.8718
4127.1795,4122.0513,4080,4146.1538,4112.8205,4134.359,4131.2821,4144.1026,4117.4359,4156.4103,3716.4103,4142.5641
4133.3333,4128.7179,4089.2308,4151.2821,4132.8205,4138.4615,4136.9231,4152.3077,4109.2308,4160.5128,3709.7436,4139.4872
4134.359,4127.6923,4092.8205,4151.7949,4138.9744,4138.9744,4132.3077,4154.8718,4091.2821,4163.5897,3698.9744,4135.3846
4140.5128,4125.641,4092.3077,4152.8205,4130.7692,4129.7436,4135.3846,4145.641,4100,4170.2564,3708.7179,4141.0256
4141.5385,4130.2564,4089.2308,4155.3846,4135.3846,4131.7949,4138.9744,4140.5128,4108.2051,4169.2308,3712.8205,4141.0256
4122.5641,4128.7179,4079.4872,4144.6154,4127.6923,4138.9744,4125.1282,4138.4615,4090.2564,4147.1795,3697.4359,4123.5897
4111.7949,4127.1795,4070.7692,4135.3846,4118.9744,4132.8205,4115.8974,4130.7692,4078.4615,4132.8205,3683.0769,4114.8718
4134.8718,4134.359,4082.5641,4146.1538,4118.9744,4120,4125.641,4134.359,4107.6923,4154.8718,3704.6154,4137.4359
4149.2308,4134.359,4091.7949,4147.6923,4103.0769,4117.4359,4126.6667,4142.0513,4125.1282,4171.7949,3727.1795,4147.1795
4126.6667,4129.2308,4086.6667,4137.9487,4115.8974,4131.2821,4120,4138.9744,4098.9744,4158.4615,3717.4359,4128.7179
4128.2051,4132.8205,4089.7436,4148.7179,4160.5128,4143.0769,4129.2308,4141.0256,4097.9487,4156.9231,3719.4872,4139.4872
4152.8205,4138.9744,4097.4359,4163.0769,4151.7949,4137.9487,4138.4615,4150.7692,4121.5385,4168.2051,3742.5641,4155.8974
4142.5641,4133.3333,4092.8205,4151.7949,4116.9231,4134.359,4132.8205,4145.1282,4108.7179,4159.4872,3747.1795,4129.2308
4126.1538,4129.7436,4087.6923,4140,4129.2308,4141.5385,4132.8205,4136.9231,4106.1538,4149.7436,3744.6154,4118.9744
4134.359,4134.8718,4087.1795,4140,4139.4872,4140.5128,4138.9744,4143.5897,4125.1282,4150.2564,3749.7436,4140.5128
4127.1795,4135.8974,4079.4872,4131.7949,4112.8205,4132.8205,4134.8718,4140.5128,4107.6923,4140.5128,3743.5897,4132.8205
4118.9744,4138.9744,4081.0256,4128.7179,4108.2051,4132.8205,4133.3333,4136.4103,4103.5897,4141.0256,3747.1795,4122.5641
4139.4872,4145.641,4091.2821,4140,4141.5385,4139.4872,4141.5385,4145.641,4127.6923,4157.9487,3760,4140.5128
4142.5641,4146.6667,4092.8205,4142.0513,4154.8718,4146.1538,4141.5385,4148.7179,4120,4158.4615,3762.5641,4143.0769
4124.6154,4146.6667,4088.2051,4134.8718,4125.1282,4136.9231,4131.7949,4143.5897,4100.5128,4151.7949,3763.5897,4132.3077
4125.641,4145.641,4085.641,4136.9231,4104.1026,4122.5641,4121.0256,4138.9744,4111.7949,4150.7692,3765.641,4133.3333
4127.1795,4141.5385,4080.5128,4138.4615,4119.4872,4129.7436,4118.9744,4132.3077,4117.9487,4140,3759.4872,4124.1026
4121.0256,4141.5385,4082.5641,4136.4103,4135.8974,4141.5385,4128.2051,4128.2051,4107.6923,4138.4615,3761.0256,4116.4103
4128.2051,4144.6154,4097.4359,4146.6667,4140.5128,4135.3846,4129.7436,4132.3077,4110.7692,4156.4103,3780.5128,4131.2821
4143.0769,4146.6667,4106.6667,4161.0256,4145.1282,4128.2051,4124.6154,4145.1282,4123.0769,4162.0513,3793.8462,4144.1026
4142.5641,4144.1026,4095.8974,4158.9744,4132.8205,4127.1795,4127.1795,4151.2821,4124.1026,4149.7436,3788.2051,4139.4872
4118.4615,4139.4872,4076.9231,4142.0513,4110.2564,4125.1282,4128.2051,4135.8974,4104.1026,4136.4103,3771.2821,4123.5897
4103.0769,4135.3846,4070.7692,4131.7949,4112.3077,4132.8205,4127.1795,4124.6154,4097.4359,4135.3846,3771.2821,4115.3846
4121.5385,4135.3846,4080,4134.359,4127.6923,4144.6154,4133.8462,4134.359,4121.0256,4144.1026,3788.2051,4124.6154
4147.1795,4141.0256,4092.8205,4148.2051,4125.641,4132.8205,4136.4103,4146.6667,4135.8974,4156.4103,3795.8974,4137.9487
4144.1026,4138.9744,4096.9231,4150.7692,4130.7692,4123.5897,4129.2308,4148.2051,4129.2308,4162.0513,3796.9231,4143.5897
4124.6154,4133.3333,4087.1795,4137.4359,4144.6154,4137.4359,4124.1026,4141.0256,4125.641,4153.3333,3800,4132.3077
4142.0513,4134.8718,4089.2308,4140,4124.1026,4126.1538,4130.7692,4140.5128,4142.5641,4145.641,3830.7692,4132.3077
4129.7436,4131.2821,4087.6923,4139.4872,4132.8205,4141.5385,4139.4872,4149.2308,4134.359,4151.7949,3813.8462,4131.2821
4122.5641,4133.8462,4084.1026,4137.4359,4115.8974,4132.8205,4132.8205,4142.0513,4129.7436,4147.1795,3805.641,4128.7179
4138.4615,4141.5385,4094.359,4151.2821,4137.9487,4134.359,4135.3846,4142.0513,4139.4872,4151.2821,3836.4103,4135.8974
4136.9231,4135.8974,4098.9744,4150.2564,4170.7692,4156.9231,4145.1282,4147.1795,4143.5897,4157.9487,3853.8462,4136.4103
4126.6667,4127.1795,4090.7692,4140,4136.9231,4139.4872,4139.4872,4141.0256,4146.1538,4154.8718,3842.0513,4132.3077
4129.2308,4130.7692,4084.1026,4144.1026,4113.3333,4116.4103,4131.2821,4136.4103,4144.6154,4146.1538,3832.8205,4130.7692
4132.8205,4135.3846,4084.6154,4155.8974,4147.6923,4135.3846,4133.8462,4136.4103,4131.7949,4142.5641,3831.2821,4128.2051
4131.7949,4140,4087.6923,4163.5897,4144.1026,4143.0769,4136.9231,4132.8205,4126.1538,4138.9744,3834.359,4127.1795
4141.0256,4138.9744,4093.3333,4169.2308,4109.2308,4125.1282,4136.4103,4141.5385,4138.4615,4145.641,3849.2308,4131.7949
4145.641,4130.7692,4092.3077,4165.641,4133.3333,4128.7179,4136.4103,4149.2308,4141.0256,4152.8205,3853.3333,4133.3333
4127.1795,4134.8718,4080.5128,4146.1538,4168.7179,4148.7179,4137.4359,4142.5641,4131.7949,4142.5641,3845.641,4128.2051
4121.0256,4144.1026,4081.0256,4142.0513,4147.6923,4142.5641,4133.8462,4135.3846,4135.8974,4136.9231,3848.7179,4127.1795
4143.0769,4141.0256,4096.9231,4156.9231,4125.641,4123.5897,4135.3846,4138.9744,4136.9231,4150.2564,3859.4872,4131.7949
4156.4103,4143.0769,4100.5128,4162.0513,4134.8718,4121.5385,4140.5128,4149.7436,4130.2564,4158.9744,3865.1282,4141.0256
4144.6154,4150.7692,4090.2564,4155.3846,4130.7692,4124.6154,4132.3077,4149.7436,4135.3846,4150.2564,3865.641,4141.0256
4135.8974,4149.7436,4088.2051,4152.8205,4114.359,4122.5641,4126.1538,4142.5641,4133.8462,4141.5385,3865.641,4130.2564
4144.6154,4147.1795,4091.2821,4155.8974,4129.2308,4131.2821,4135.3846,4141.0256,4112.8205,4145.641,3862.5641,4130.2564
4151.7949,4152.3077,4098.4615,4161.0256,4152.8205,4140.5128,4142.0513,4144.1026,4121.0256,4154.359,3876.4103,4140
4137.9487,4151.7949,4098.4615,4158.4615,4149.2308,4137.9487,4133.8462,4134.359,4138.4615,4144.6154,3880.5128,4133.3333
4123.0769,4145.1282,4090.2564,4151.2821,4136.9231,4137.9487,4128.7179,4126.6667,4121.0256,4131.7949,3861.5385,4121.0256
4146.1538,4150.7692,4103.0769,4164.1026,4142.0513,4133.8462,4138.4615,4143.5897,4120,4150.7692,3871.2821,4131.2821
4163.0769,4152.3077,4116.9231,4172.8205,4144.1026,4125.641,4141.0256,4154.359,4144.6154,4162.5641,3894.359,4135.3846
4136.9231,4144.6154,4101.0256,4155.3846,4134.359,4129.7436,4129.2308,4140,4134.359,4140,3885.641,4118.4615
4133.8462,4146.1538,4095.8974,4151.2821,4137.9487,4135.8974,4125.641,4129.7436,4116.9231,4137.4359,3882.5641,4122.5641
4161.0256,4149.2308,4108.2051,4162.0513,4147.1795,4136.4103,4136.9231,4144.1026,4134.359,4157.9487,3898.9744,4142.5641
4161.5385,4148.2051,4108.2051,4158.9744,4136.4103,4130.2564,4140.5128,4154.8718,4140.5128,4157.4359,3893.3333,4138.4615
4151.7949,4143.5897,4105.1282,4154.359,4127.1795,4124.1026,4135.8974,4148.2051,4129.2308,4144.6154,3891.2821,4127.6923
4144.6154,4140,4103.0769,4152.3077,4128.7179,4128.2051,4136.9231,4145.1282,4122.0513,4143.0769,3900.5128,4126.6667
4123.0769,4137.9487,4094.8718,4138.9744,4101.0256,4122.0513,4127.6923,4137.9487,4107.6923,4138.9744,3883.5897,4112.3077
4122.0513,4135.3846,4095.8974,4133.8462,4089.2308,4113.8462,4122.5641,4133.3333,4107.1795,4137.9487,3872.8205,4104.1026
4158.4615,4136.4103,4116.4103,4142.5641,4143.5897,4132.8205,4142.5641,4150.2564,4138.4615,4158.4615,3903.0769,4133.8462
4176.9231,4141.0256,4130.7692,4147.1795,4178.9744,4145.641,4153.3333,4158.9744,4158.9744,4173.3333,3938.4615,4160
4154.8718,4137.4359,4120,4137.4359,4148.2051,4133.8462,4139.4872,4143.0769,4136.9231,4161.0256,3929.7436,4143.5897
4137.9487,4129.2308,4104.6154,4125.1282,4128.2051,4135.3846,4134.8718,4134.359,4120.5128,4142.0513,3905.641,4117.9487
4138.4615,4127.6923,4102.5641,4117.9487,4131.7949,4139.4872,4140,4141.5385,4121.5385,4141.0256,3898.9744,4111.7949
4135.3846,4131.7949,4105.1282,4115.3846,4120,4122.0513,4136.4103,4148.2051,4123.5897,4148.2051,3906.6667,4115.3846
4145.1282,4130.7692,4106.6667,4122.5641,4110.7692,4115.3846,4132.8205,4150.7692,4147.6923,4154.8718,3923.5897,4127.1795
4153.3333,4133.8462,4105.641,4125.641,4109.7436,4128.2051,4133.8462,4138.4615,4156.9231,4150.7692,3928.2051,4126.1538
4151.2821,4141.5385,4106.1538,4120,4134.8718,4145.1282,4136.9231,4135.8974,4128.7179,4148.2051,3925.1282,4118.4615
4159.4872,4136.9231,4118.9744,4129.2308,4158.9744,4145.1282,4142.5641,4152.8205,4120,4163.0769,3942.5641,4137.4359
4163.5897,4129.2308,4126.1538,4142.5641,4135.3846,4129.7436,4140.5128,4147.6923,4130.7692,4163.0769,3955.8974,4146.1538
4150.2564,4130.7692,4112.8205,4135.3846,4119.4872,4129.2308,4136.4103,4141.0256,4124.6154,4150.2564,3944.6154,4124.6154
4147.6923,4133.8462,4104.6154,4124.6154,4146.1538,4140.5128,4138.4615,4154.8718,4129.2308,4155.3846,3945.1282,4124.1026
4158.4615,4132.8205,4109.7436,4125.641,4145.641,4141.0256,4141.5385,4154.359,4138.9744,4162.0513,3949.7436,4138.4615
4152.8205,4129.7436,4106.6667,4121.5385,4104.1026,4128.7179,4133.8462,4136.4103,4128.2051,4148.2051,3937.4359,4127.1795
4146.6667,4133.3333,4102.0513,4117.4359,4099.4872,4118.4615,4122.0513,4129.2308,4117.9487,4141.0256,3943.5897,4117.9487
4153.8462,4138.9744,4110.7692,4125.1282,4131.7949,4123.0769,4125.641,4134.8718,4125.1282,4160,3960.5128,4126.6667
4157.4359,4133.8462,4115.8974,4131.7949,4152.8205,4140,4137.9487,4144.1026,4134.8718,4169.2308,3958.4615,4124.6154
4149.2308,4129.2308,4108.2051,4127.1795,4142.5641,4144.6154,4136.9231,4144.6154,4127.1795,4149.2308,3955.8974,4118.4615
4143.0769,4130.2564,4106.1538,4121.5385,4122.0513,4126.1538,4123.0769,4133.8462,4116.9231,4142.0513,3961.0256,4127.6923
4145.641,4132.3077,4109.2308,4123.5897,4121.5385,4115.8974,4122.5641,4133.3333,4116.9231,4156.4103,3958.9744,4132.8205
4138.4615,4130.7692,4096.4103,4117.9487,4123.5897,4122.0513,4123.0769,4138.9744,4109.2308,4140.5128,3953.3333,4116.4103
4139.4872,4131.2821,4090.2564,4111.7949,4124.1026,4126.6667,4117.4359,4137.9487,4105.641,4118.9744,3955.8974,4106.1538
4152.8205,4134.8718,4102.0513,4120,4124.1026,4122.0513,4128.2051,4137.4359,4117.9487,4140,3965.641,4117.9487
4147.6923,4134.8718,4098.4615,4121.5385,4111.7949,4118.9744,4138.9744,4138.4615,4124.6154,4155.3846,3972.3077,4126.6667
4135.8974,4133.8462,4083.5897,4113.3333,4112.3077,4129.7436,4127.6923,4137.4359,4125.1282,4135.8974,3976.4103,4120
4151.7949,4136.4103,4091.2821,4118.4615,4138.9744,4136.4103,4119.4872,4136.4103,4132.8205,4137.9487,3986.6667,4127.6923
4166.1538,4133.8462,4101.5385,4123.5897,4134.359,4126.6667,4125.1282,4137.9487,4127.1795,4157.4359,3993.8462,4142.5641
4147.6923,4131.2821,4090.7692,4116.4103,4109.2308,4120,4123.5897,4139.4872,4119.4872,4148.7179,3984.6154,4131.7949
4142.5641,4136.4103,4092.8205,4119.4872,4125.641,4129.2308,4122.0513,4141.5385,4125.1282,4144.6154,3984.6154,4124.6154
4160,4139.4872,4103.0769,4125.641,4144.6154,4130.7692,4127.6923,4140,4126.6667,4156.9231,3999.4872,4132.8205
4163.5897,4137.9487,4098.9744,4121.0256,4136.4103,4121.0256,4127.1795,4134.8718,4134.359,4156.4103,4010.7692,4138.9744
4152.3077,4134.359,4091.7949,4122.0513,4129.2308,4122.5641,4124.1026,4135.8974,4143.5897,4152.3077,4004.1026,4137.9487
4139.4872,4132.3077,4088.7179,4126.1538,4115.3846,4123.5897,4122.5641,4135.8974,4131.7949,4151.2821,3985.641,4125.1282
4139.4872,4135.3846,4085.641,4122.0513,4109.7436,4121.0256,4122.0513,4128.2051,4117.9487,4138.9744,3987.1795,4113.8462
4145.641,4144.1026,4087.6923,4120.5128,4136.4103,4130.7692,4125.1282,4129.7436,4121.0256,4134.8718,4004.6154,4115.8974
4154.359,4145.1282,4095.8974,4129.2308,4151.7949,4144.1026,4133.8462,4142.5641,4135.3846,4156.4103,4009.2308,4125.1282
4152.8205,4132.3077,4091.2821,4127.1795,4126.6667,4139.4872,4134.359,4144.1026,4138.4615,4154.8718,4001.5385,4125.1282
4140.5128,4129.7436,4090.2564,4124.1026,4109.2308,4121.0256,4127.6923,4140.5128,4123.5897,4138.4615,4006.6667,4124.6154
4137.9487,4135.3846,4095.3846,4132.3077,4118.9744,4117.4359,4123.5897,4136.9231,4109.7436,4144.1026,4014.8718,4122.5641
4152.8205,4135.8974,4094.8718,4138.4615,4141.5385,4130.7692,4126.6667,4134.8718,4121.5385,4152.8205,4017.9487,4128.7179
4166.6667,4136.9231,4096.9231,4140,4143.0769,4133.3333,4131.2821,4141.5385,4146.6667,4156.9231,4026.1538,4143.5897
4147.1795,4132.8205,4087.6923,4130.2564,4101.0256,4121.5385,4121.5385,4136.4103,4137.4359,4149.7436,4015.3846,4127.6923
4130.2564,4132.3077,4077.4359,4126.1538,4093.3333,4124.6154,4121.0256,4125.1282,4118.9744,4139.4872,4007.6923,4110.7692
4151.7949,4142.5641,4097.4359,4145.641,4145.641,4138.4615,4143.5897,4144.6154,4132.8205,4156.9231,4035.3846,4136.9231
4165.641,4144.1026,4116.9231,4155.8974,4167.6923,4141.0256,4152.3077,4163.0769,4141.0256,4180,4052.8205,4155.3846
4147.1795,4137.4359,4098.4615,4139.4872,4137.4359,4137.9487,4136.4103,4143.0769,4123.5897,4158.9744,4033.8462,4130.2564
4140.5128,4136.4103,4082.0513,4131.7949,4120,4136.4103,4131.2821,4128.2051,4126.1538,4135.3846,4028.7179,4114.8718
4150.7692,4136.9231,4095.8974,4137.4359,4123.5897,4133.8462,4138.9744,4144.6154,4144.6154,4151.7949,4045.641,4135.3846
4141.5385,4131.2821,4102.0513,4135.8974,4127.6923,4135.3846,4138.4615,4152.8205,4136.4103,4166.1538,4041.5385,4144.1026
4132.3077,4133.3333,4088.2051,4134.8718,4143.5897,4140,4134.359,4137.9487,4118.4615,4151.2821,4030.2564,4124.1026
4146.6667,4140.5128,4084.6154,4142.0513,4141.5385,4136.9231,4132.3077,4133.8462,4122.5641,4136.4103,4035.3846,4119.4872
4154.8718,4134.359,4093.3333,4147.1795,4125.1282,4133.8462,4136.4103,4153.8462,4130.7692,4147.1795,4050.7692,4140
4141.0256,4128.7179,4085.1282,4142.0513,4129.7436,4140,4136.4103,4153.8462,4116.9231,4149.7436,4048.7179,4130.7692
4127.6923,4130.2564,4071.2821,4132.8205,4122.5641,4135.3846,4124.6154,4135.8974,4109.2308,4132.3077,4028.2051,4101.5385
4138.9744,4133.8462,4084.6154,4136.4103,4100.5128,4119.4872,4124.1026,4133.3333,4132.3077,4132.3077,4039.4872,4118.4615
4153.3333,4138.9744,4097.9487,4143.5897,4127.1795,4128.2051,4137.4359,4138.9744,4134.8718,4141.5385,4067.6923,4138.9744
4151.7949,4140,4089.2308,4140.5128,4168.7179,4147.1795,4139.4872,4147.6923,4122.0513,4143.5897,4065.1282,4125.1282
4153.8462,4140,4089.2308,4139.4872,4149.2308,4141.5385,4137.4359,4153.8462,4135.3846,4156.9231,4055.3846,4128.7179
4151.2821,4140,4094.8718,4142.0513,4123.5897,4134.8718,4138.4615,4142.0513,4137.4359,4156.4103,4058.4615,4136.9231
4137.4359,4134.359,4090.7692,4138.9744,4128.2051,4131.7949,4129.2308,4125.641,4122.0513,4132.8205,4057.9487,4122.0513
4137.4359,4132.8205,4089.7436,4137.9487,4126.1538,4124.1026,4126.1538,4132.8205,4125.641,4138.4615,4053.8462,4124.1026
4151.2821,4139.4872,4091.2821,4146.6667,4136.9231,4132.3077,4137.9487,4150.2564,4133.3333,4158.9744,4057.4359,4137.9487
4156.4103,4140.5128,4089.7436,4157.9487,4156.9231,4144.1026,4141.0256,4153.3333,4133.3333,4152.3077,4065.1282,4127.1795
4147.6923,4133.3333,4089.7436,4154.8718,4136.4103,4137.9487,4134.359,4142.0513,4138.9744,4138.9744,4070.2564,4118.4615
4140,4127.6923,4129.2308,4142.0513,4135.8974,4117.9487,4115.3846,4119.4872,4161.0256,4155.3846,4187.1795,4157.4359
4127.6923,4119.4872,4124.6154,4135.3846,4118.4615,4104.6154,4106.6667,4113.3333,4144.6154,4144.1026,4171.7949,4135.8974
4122.0513,4111.7949,4117.9487,4125.641,4138.9744,4127.6923,4111.2821,4118.9744,4140,4132.8205,4163.5897,4122.5641
4144.6154,4124.6154,4127.6923,4137.4359,4158.9744,4138.4615,4123.5897,4124.1026,4152.8205,4144.6154,4187.6923,4153.8462
4163.0769,4135.3846,4141.5385,4148.7179,4130.7692,4110.2564,4119.4872,4127.6923,4158.4615,4170.7692,4196.4103,4177.4359
4153.3333,4126.1538,4142.0513,4140,4112.3077,4104.6154,4115.8974,4138.9744,4155.8974,4172.3077,4173.8462,4159.4872
4132.3077,4116.4103,4123.5897,4123.5897,4127.6923,4127.1795,4118.9744,4128.2051,4142.5641,4141.5385,4166.6667,4132.3077
4123.5897,4123.0769,4104.6154,4116.9231,4119.4872,4124.1026,4109.2308,4105.641,4117.4359,4119.4872,4165.1282,4120.5128
4134.8718,4126.6667,4113.3333,4129.7436,4113.3333,4108.7179,4104.1026,4108.7179,4118.4615,4128.7179,4167.6923,4128.7179
4144.1026,4120.5128,4132.3077,4141.0256,4122.5641,4103.5897,4109.2308,4123.5897,4142.0513,4149.7436,4183.0769,4149.2308
4137.9487,4126.1538,4133.8462,4132.3077,4115.8974,4105.641,4107.6923,4127.1795,4148.7179,4154.359,4177.9487,4155.3846
4131.2821,4130.7692,4122.0513,4123.5897,4121.0256,4125.641,4108.7179,4113.8462,4134.8718,4134.8718,4152.8205,4136.4103
4138.4615,4127.6923,4124.1026,4129.7436,4138.9744,4138.9744,4121.0256,4109.2308,4132.3077,4125.641,4167.1795,4134.359
4157.4359,4130.7692,4138.9744,4140,4137.9487,4126.1538,4125.1282,4126.1538,4151.2821,4148.7179,4207.6923,4160.5128
4160.5128,4128.7179,4139.4872,4139.4872,4136.9231,4119.4872,4123.0769,4134.359,4155.8974,4165.641,4201.0256,4166.6667
4142.5641,4125.1282,4126.1538,4136.9231,4143.5897,4127.6923,4126.6667,4122.5641,4135.3846,4154.8718,4176.9231,4151.7949
4132.8205,4127.1795,4125.1282,4139.4872,4128.2051,4124.1026,4125.1282,4123.0769,4126.1538,4151.7949,4183.0769,4147.6923
4128.2051,4124.1026,4125.641,4140,4114.359,4116.9231,4121.0256,4130.7692,4125.641,4152.3077,4189.7436,4140.5128
4119.4872,4119.4872,4116.9231,4138.9744,4128.7179,4122.5641,4125.1282,4124.6154,4127.6923,4142.0513,4179.4872,4126.1538
4116.4103,4121.5385,4110.7692,4136.4103,4130.7692,4124.6154,4121.0256,4120.5128,4133.8462,4136.4103,4162.0513,4122.5641
4122.0513,4127.6923,4114.8718,4135.3846,4120,4121.5385,4112.3077,4122.0513,4134.359,4138.4615,4161.5385,4126.6667
4131.2821,4131.7949,4126.1538,4146.1538,4125.641,4116.9231,4117.9487,4124.6154,4131.7949,4148.7179,4178.4615,4137.4359
4133.3333,4131.2821,4132.3077,4151.7949,4135.3846,4119.4872,4127.1795,4127.6923,4135.3846,4153.3333,4183.5897,4144.1026
4119.4872,4125.1282,4127.1795,4140,4134.359,4129.2308,4125.641,4125.641,4132.3077,4140,4169.7436,4129.7436
4109.2308,4120.5128,4119.4872,4135.8974,4118.9744,4122.5641,4117.4359,4116.4103,4123.5897,4133.3333,4154.8718,4118.9744
4110.2564,4122.5641,4116.4103,4141.5385,4108.2051,4109.2308,4116.4103,4116.4103,4120,4138.4615,4150.2564,4124.1026
4114.359,4124.6154,4114.8718,4139.4872,4122.5641,4117.4359,4122.5641,4130.2564,4124.6154,4133.3333,4155.8974,4123.0769
4118.4615,4126.1538,4118.9744,4138.4615,4141.0256,4130.7692,4130.7692,4136.9231,4135.3846,4130.2564,4168.2051,4119.4872
4115.3846,4129.7436,4125.641,4145.1282,4132.3077,4124.6154,4135.8974,4138.9744,4139.4872,4148.2051,4171.7949,4130.7692
4112.8205,4130.7692,4125.1282,4141.5385,4117.9487,4118.9744,4130.7692,4138.4615,4124.1026,4153.8462,4169.2308,4135.3846
4117.4359,4127.1795,4117.4359,4135.8974,4125.1282,4124.6154,4122.0513,4124.6154,4117.4359,4138.9744,4165.641,4125.1282
4123.0769,4128.7179,4123.0769,4145.1282,4129.7436,4125.641,4121.0256,4119.4872,4129.2308,4140.5128,4162.5641,4130.2564
4126.1538,4135.3846,4139.4872,4157.9487,4116.4103,4121.0256,4125.641,4122.5641,4130.2564,4147.6923,4167.1795,4142.5641
4122.0513,4135.3846,4134.359,4151.7949,4105.641,4120,4123.5897,4112.3077,4121.0256,4136.4103,4169.7436,4135.8974
4123.5897,4128.7179,4128.2051,4149.7436,4112.3077,4122.5641,4123.0769,4117.9487,4135.3846,4143.0769,4169.7436,4135.3846
4125.1282,4130.7692,4138.4615,4181.0256,4125.1282,4124.6154,4127.6923,4136.4103,4146.1538,4161.5385,4167.1795,4142.0513
4111.2821,4130.7692,4133.3333,4212.8205,4125.1282,4126.1538,4122.5641,4126.6667,4116.4103,4141.5385,4160,4127.6923
4112.3077,4125.1282,4118.9744,4216.4103,4126.1538,4127.1795,4115.8974,4114.8718,4106.1538,4122.0513,4164.1026,4120
4124.1026,4127.6923,4122.5641,4210.2564,4123.0769,4117.4359,4118.4615,4126.1538,4141.0256,4140.5128,4178.9744,4138.4615
4112.3077,4130.7692,4126.6667,4207.6923,4108.2051,4106.6667,4121.0256,4126.6667,4144.1026,4148.7179,4175.8974,4143.0769
4104.6154,4126.6667,4121.0256,4196.9231,4109.2308,4115.3846,4121.0256,4126.6667,4118.4615,4136.4103,4162.5641,4129.2308
4123.5897,4126.6667,4122.5641,4175.8974,4124.1026,4127.1795,4128.2051,4141.0256,4127.1795,4138.9744,4171.7949,4133.8462
4129.2308,4132.3077,4120.5128,4162.0513,4126.1538,4125.641,4136.9231,4136.9231,4145.1282,4147.1795,4176.9231,4143.5897
4113.8462,4130.2564,4111.2821,4153.8462,4119.4872,4123.5897,4131.2821,4121.0256,4127.1795,4138.9744,4153.8462,4126.6667
4107.6923,4121.0256,4106.1538,4141.5385,4120.5128,4125.1282,4121.0256,4120,4118.4615,4128.2051,4149.7436,4111.2821
4107.6923,4121.0256,4106.1538,4135.8974,4122.0513,4122.5641,4121.5385,4120,4132.3077,4121.5385,4166.6667,4118.4615
4106.6667,4124.6154,4111.2821,4141.5385,4121.5385,4121.0256,4124.1026,4120.5128,4129.2308,4120.5128,4159.4872,4126.1538
4111.2821,4121.5385,4120,4141.0256,4123.0769,4123.0769,4124.6154,4127.6923,4124.6154,4129.7436,4149.7436,4128.2051
4121.5385,4120,4123.0769,4135.3846,4123.0769,4122.0513,4124.6154,4125.641,4141.0256,4135.3846,4172.8205,4134.359
4126.6667,4121.5385,4121.5385,4140,4126.1538,4124.6154,4122.0513,4122.5641,4156.4103,4135.3846,4173.3333,4135.3846
4121.5385,4123.5897,4121.5385,4144.1026,4125.641,4125.1282,4121.5385,4134.359,4154.359,4142.0513,4154.359,4133.3333
4124.6154,4124.6154,4125.641,4140.5128,4115.8974,4114.8718,4126.6667,4137.4359,4148.2051,4148.2051,4178.9744,4144.1026
4127.6923,4118.9744,4122.0513,4135.8974,4122.5641,4121.0256,4126.1538,4123.0769,4143.5897,4136.4103,4184.6154,4138.9744
4117.9487,4115.8974,4116.4103,4134.8718,4138.4615,4137.9487,4122.5641,4118.9744,4136.9231,4128.2051,4142.5641,4118.9744
4121.5385,4121.0256,4127.1795,4144.1026,4134.8718,4132.3077,4129.2308,4131.2821,4137.4359,4146.1538,4143.5897,4131.2821
4137.9487,4126.6667,4141.0256,4148.7179,4121.0256,4114.359,4132.8205,4132.8205,4142.0513,4153.8462,4180.5128,4153.3333
4141.5385,4125.641,4137.9487,4137.4359,4122.0513,4116.9231,4125.1282,4123.0769,4145.1282,4138.4615,4174.8718,4143.5897
4128.2051,4118.4615,4123.0769,4124.6154,4124.6154,4127.1795,4120.5128,4117.9487,4141.0256,4133.8462,4149.7436,4127.1795
4125.1282,4116.9231,4121.5385,4125.1282,4122.0513,4122.5641,4122.5641,4128.2051,4135.3846,4141.5385,4152.3077,4133.3333
4134.8718,4118.4615,4132.3077,4131.7949,4132.3077,4118.9744,4122.5641,4133.8462,4135.8974,4142.0513,4155.3846,4136.4103
4125.1282,4124.1026,4120.5128,4113.8462,4126.1538,4127.6923,4118.9744,4127.1795,4129.7436,4130.2564,4138.9744,4123.0769
4132.3077,4122.5641,4124.1026,4114.8718,4106.6667,4116.9231,4117.9487,4123.0769,4118.4615,4137.9487,4136.4103,4123.5897
4139.4872,4124.1026,4139.4872,4125.1282,4121.0256,4113.8462,4123.5897,4121.0256,4128.2051,4145.1282,4157.4359,4133.3333
4124.1026,4122.0513,4133.3333,4121.5385,4146.1538,4123.5897,4121.0256,4123.0769,4142.5641,4140,4158.9744,4127.6923
4117.9487,4118.9744,4120,4108.2051,4129.2308,4123.5897,4108.7179,4120.5128,4136.4103,4133.8462,4136.4103,4116.4103
4124.1026,4120,4120,4104.1026,4114.8718,4115.3846,4104.1026,4113.8462,4118.4615,4126.1538,4129.7436,4109.7436
4121.5385,4121.0256,4122.5641,4107.1795,4138.4615,4123.5897,4114.8718,4120,4123.5897,4116.9231,4136.9231,4107.1795
4119.4872,4124.1026,4121.0256,4107.1795,4134.8718,4130.2564,4124.6154,4130.7692,4136.4103,4124.6154,4140,4120
4123.5897,4128.2051,4122.0513,4107.1795,4105.1282,4118.9744,4124.6154,4126.6667,4129.2308,4138.4615,4147.1795,4130.2564
4123.0769,4126.6667,4123.5897,4107.6923,4107.1795,4115.8974,4124.1026,4119.4872,4124.6154,4136.4103,4154.8718,4122.0513
4121.5385,4120,4122.5641,4107.1795,4120.5128,4132.3077,4128.7179,4126.6667,4133.3333,4127.1795,4151.2821,4119.4872
4123.0769,4122.0513,4121.5385,4112.8205,4131.2821,4146.1538,4130.2564,4135.3846,4138.9744,4129.2308,4147.1795,4123.0769
4123.5897,4132.3077,4125.641,4120.5128,4144.1026,4138.4615,4125.1282,4133.3333,4137.9487,4137.4359,4153.3333,4121.5385
4123.5897,4128.7179,4133.8462,4122.0513,4138.9744,4125.641,4121.5385,4129.7436,4134.359,4137.9487,4157.9487,4122.0513
4123.5897,4125.641,4133.3333,4123.0769,4123.0769,4124.6154,4122.0513,4130.2564,4132.8205,4137.9487,4156.4103,4125.1282
4121.0256,4130.7692,4122.5641,4123.0769,4117.4359,4130.2564,4126.1538,4131.7949,4134.359,4138.9744,4147.6923,4123.0769
4122.5641,4131.2821,4125.641,4121.0256,4125.1282,4137.4359,4134.8718,4133.8462,4139.4872,4135.8974,4150.7692,4124.6154
4137.4359,4131.2821,4147.6923,4130.2564,4139.4872,4144.1026,4142.5641,4143.0769,4150.2564,4145.641,4170.2564,4139.4872
4146.6667,4130.2564,4158.9744,4140.5128,4142.0513,4140.5128,4143.0769,4150.7692,4160.5128,4166.6667,4180,4151.2821
4133.3333,4129.2308,4144.6154,4126.6667,4135.8974,4135.3846,4142.5641,4143.5897,4155.8974,4163.5897,4171.7949,4140.5128
4120,4134.8718,4126.6667,4105.641,4138.9744,4140,4140.5128,4134.8718,4144.6154,4142.0513,4156.9231,4123.5897
4119.4872,4133.3333,4121.5385,4103.5897,4128.7179,4138.9744,4131.2821,4133.8462,4140.5128,4131.7949,4141.5385,4120
4118.4615,4131.2821,4122.0513,4105.1282,4112.3077,4134.8718,4129.2308,4128.2051,4135.3846,4134.359,4134.8718,4119.4872
4115.8974,4147.1795,4125.641,4104.1026,4120.5128,4138.4615,4135.3846,4122.5641,4130.7692,4137.9487,4143.5897,4118.4615
4118.9744,4162.5641,4133.3333,4112.3077,4130.7692,4141.5385,4138.4615,4135.8974,4136.9231,4139.4872,4155.8974,4126.1538
4129.2308,4164.6154,4140,4126.6667,4128.7179,4136.9231,4139.4872,4143.5897,4153.3333,4145.1282,4167.6923,4140
4138.4615,4181.0256,4146.1538,4132.3077,4133.3333,4136.4103,4142.5641,4136.4103,4156.9231,4154.8718,4173.3333,4146.6667
4130.2564,4191.7949,4138.4615,4126.6667,4144.6154,4147.1795,4140,4133.3333,4140,4150.7692,4160,4131.2821
4115.8974,4180,4121.5385,4118.9744,4134.8718,4152.3077,4135.8974,4135.8974,4136.4103,4138.9744,4149.7436,4118.4615
4126.6667,4175.3846,4126.6667,4122.0513,4108.2051,4139.4872,4138.9744,4140,4148.7179,4146.1538,4165.1282,4140
4137.9487,4170.2564,4141.5385,4128.7179,4112.8205,4130.7692,4137.9487,4140,4147.6923,4157.9487,4180,4155.3846
4131.2821,4152.8205,4136.4103,4130.7692,4140,4136.9231,4133.8462,4134.8718,4142.0513,4151.2821,4169.2308,4138.4615
4133.3333,4148.7179,4133.3333,4134.8718,4135.3846,4140.5128,4137.9487,4138.4615,4149.7436,4149.7436,4162.5641,4133.8462
4140.5128,4148.7179,4141.0256,4139.4872,4113.8462,4131.7949,4133.8462,4139.4872,4148.2051,4157.4359,4172.8205,4142.0513
4136.9231,4141.5385,4137.9487,4137.9487,4119.4872,4126.1538,4124.1026,4127.1795,4128.2051,4149.2308,4168.7179,4130.7692
4134.8718,4142.5641,4135.3846,4136.9231,4121.0256,4128.7179,4127.1795,4122.5641,4130.2564,4138.9744,4154.8718,4123.0769
4140,4146.1538,4133.3333,4131.7949,4102.5641,4131.7949,4130.2564,4125.641,4136.4103,4137.4359,4152.3077,4127.1795
4135.8974,4148.2051,4125.641,4130.2564,4098.4615,4131.7949,4122.5641,4123.5897,4125.641,4135.3846,4154.8718,4122.5641
4128.7179,4152.3077,4126.6667,4137.9487,4111.2821,4134.8718,4118.9744,4122.0513,4128.7179,4135.3846,4157.9487,4121.5385
4133.3333,4150.2564,4131.2821,4140.5128,4124.6154,4135.3846,4122.5641,4127.6923,4138.9744,4140,4162.0513,4131.2821
4138.4615,4144.1026,4130.7692,4137.4359,4125.1282,4126.1538,4125.641,4134.8718,4143.5897,4146.6667,4161.0256,4140.5128
4132.3077,4146.1538,4126.1538,4133.8462,4110.7692,4121.0256,4127.6923,4135.3846,4141.5385,4143.0769,4158.9744,4138.9744
4114.8718,4144.1026,4112.8205,4124.1026,4103.5897,4124.6154,4124.1026,4125.641,4114.359,4121.0256,4152.3077,4118.4615
4111.2821,4134.8718,4107.6923,4118.4615,4115.8974,4131.7949,4122.0513,4122.5641,4101.0256,4116.9231,4137.9487,4108.7179
4123.0769,4135.8974,4121.5385,4126.1538,4126.1538,4137.4359,4132.8205,4137.9487,4134.359,4142.5641,4138.9744,4129.7436
4129.7436,4140,4128.7179,4127.1795,4121.0256,4131.2821,4138.4615,4144.6154,4146.1538,4149.2308,4167.1795,4141.0256
4127.1795,4136.9231,4117.4359,4121.0256,4115.8974,4124.6154,4130.7692,4132.3077,4124.6154,4133.3333,4178.9744,4129.2308
4117.4359,4134.8718,4107.1795,4117.9487,4102.5641,4121.0256,4120.5128,4125.1282,4124.1026,4134.8718,4155.8974,4120
4110.2564,4136.9231,4105.1282,4122.0513,4083.5897,4114.8718,4117.9487,4126.1538,4128.2051,4142.0513,4146.6667,4117.4359
4115.8974,4140,4109.2308,4132.3077,4097.4359,4120,4120.5128,4124.1026,4123.5897,4133.8462,4155.3846,4115.8974
4124.6154,4137.4359,4111.7949,4129.7436,4129.7436,4134.359,4120.5128,4126.1538,4137.9487,4134.359,4151.2821,4125.1282
4120.5128,4132.3077,4106.1538,4121.0256,4127.1795,4129.7436,4118.9744,4129.7436,4148.2051,4142.0513,4157.4359,4135.3846
4115.8974,4131.7949,4105.641,4118.9744,4111.7949,4118.4615,4121.5385,4126.6667,4130.2564,4131.7949,4168.7179,4126.6667
4123.0769,4135.3846,4113.3333,4122.5641,4123.5897,4127.6923,4128.7179,4127.6923,4122.0513,4127.6923,4151.7949,4119.4872
4117.4359,4136.9231,4110.7692,4122.5641,4125.1282,4136.9231,4127.1795,4126.6667,4126.1538,4125.641,4139.4872,4123.5897
4103.0769,4133.3333,4103.0769,4121.5385,4112.3077,4136.9231,4120.5128,4120,4123.0769,4108.2051,4154.359,4124.6154
4110.2564,4136.4103,4109.2308,4126.1538,4114.8718,4134.8718,4124.6154,4125.1282,4124.1026,4113.3333,4155.8974,4121.5385
4123.0769,4163.0769,4112.8205,4126.1538,4123.0769,4131.2821,4138.4615,4137.9487,4134.359,4137.4359,4151.2821,4120
4113.3333,4186.6667,4103.5897,4118.9744,4123.0769,4131.2821,4140,4141.0256,4141.5385,4130.2564,4156.4103,4122.0513
4093.8462,4179.4872,4093.3333,4106.6667,4118.9744,4132.3077,4124.6154,4127.1795,4144.1026,4106.6667,4146.6667,4120
4095.3846,4170.7692,4093.8462,4112.8205,4118.4615,4129.7436,4121.5385,4120,4144.6154,4113.8462,4141.5385,4113.8462
4104.1026,4172.3077,4099.4872,4130.7692,4113.8462,4126.6667,4129.2308,4131.2821,4139.4872,4124.6154,4150.2564,4106.1538
4105.641,4171.2821,4106.6667,4136.4103,4106.1538,4122.0513,4128.7179,4135.8974,4140,4122.0513,4143.0769,4107.6923
4110.2564,4171.7949,4112.8205,4144.1026,4108.2051,4117.4359,4129.7436,4123.0769,4146.1538,4129.2308,4135.3846,4121.0256
4114.8718,4173.3333,4113.3333,4149.2308,4122.5641,4130.7692,4131.2821,4116.9231,4144.1026,4135.3846,4143.5897,4123.0769
4109.7436,4171.2821,4110.7692,4140.5128,4130.2564,4141.0256,4131.7949,4123.0769,4134.8718,4131.2821,4136.9231,4108.7179
4108.2051,4168.2051,4109.2308,4137.9487,4111.7949,4123.5897,4134.8718,4122.5641,4137.4359,4127.6923,4121.5385,4102.0513
4109.7436,4164.1026,4109.7436,4135.3846,4104.6154,4120.5128,4138.4615,4123.5897,4147.1795,4127.6923,4126.1538,4107.1795
4100,4158.4615,4107.1795,4120,4123.0769,4140,4129.7436,4125.1282,4143.5897,4121.0256,4139.4872,4105.1282
4094.8718,4152.8205,4101.5385,4114.359,4129.7436,4135.3846,4120,4122.5641,4151.7949,4118.4615,4138.9744,4106.6667
4108.2051,4141.0256,4107.1795,4128.2051,4126.6667,4122.5641,4127.1795,4129.7436,4157.4359,4126.1538,4120.5128,4110.7692
4108.2051,4117.9487,4114.359,4125.641,4131.2821,4135.8974,4137.9487,4136.4103,4125.641,4124.1026,4113.8462,4098.9744
4098.9744,4108.2051,4109.2308,4126.1538,4136.4103,4146.6667,4141.0256,4138.9744,4114.359,4121.5385,4134.8718,4098.4615
4118.4615,4115.8974,4116.9231,4133.8462,4138.9744,4140,4140.5128,4139.4872,4156.9231,4136.4103,4162.5641,4130.2564
4136.9231,4112.3077,4136.4103,4125.641,4141.5385,4134.359,4141.5385,4133.8462,4171.2821,4150.7692,4157.9487,4145.1282
4112.3077,4102.5641,4126.6667,4129.2308,4124.1026,4131.2821,4135.3846,4126.6667,4141.0256,4141.0256,4130.2564,4116.4103
4095.8974,4109.7436,4111.2821,4146.1538,4106.6667,4118.9744,4124.6154,4132.3077,4154.8718,4134.8718,4139.4872,4113.8462
4109.2308,4118.4615,4121.0256,4147.1795,4109.7436,4111.7949,4122.5641,4142.0513,4173.3333,4147.1795,4158.4615,4138.9744
4109.7436,4109.7436,4125.641,4134.359,4113.8462,4127.6923,4122.5641,4129.7436,4140,4145.1282,4143.5897,4127.1795
4106.6667,4102.0513,4116.9231,4135.3846,4122.5641,4138.9744,4120.5128,4116.9231,4131.7949,4135.8974,4136.9231,4112.3077
4120.5128,4110.7692,4121.5385,4158.9744,4128.7179,4120.5128,4121.0256,4129.7436,4170.2564,4146.1538,4151.7949,4127.1795
4128.7179,4120,4135.3846,4181.5385,4123.5897,4106.1538,4121.5385,4137.4359,4182.5641,4156.4103,4158.4615,4136.9231
4124.1026,4115.8974,4137.4359,4179.4872,4124.6154,4122.0513,4124.6154,4128.2051,4163.0769,4151.2821,4160.5128,4134.8718
4117.9487,4107.6923,4129.7436,4161.5385,4125.641,4132.8205,4126.6667,4130.2564,4164.6154,4145.641,4156.4103,4133.3333
4116.9231,4115.3846,4131.2821,4167.6923,4121.0256,4124.1026,4124.1026,4142.0513,4175.8974,4145.1282,4145.641,4125.1282
4124.1026,4130.7692,4144.6154,4183.0769,4122.0513,4121.0256,4124.6154,4140.5128,4165.1282,4153.8462,4148.7179,4125.641
4125.1282,4126.6667,4141.5385,4175.8974,4123.5897,4122.5641,4124.1026,4130.2564,4155.3846,4156.9231,4146.1538,4130.2564
4115.8974,4112.3077,4124.6154,4163.0769,4122.5641,4124.1026,4120.5128,4125.1282,4158.4615,4140,4135.8974,4122.5641
4111.2821,4111.2821,4122.5641,4167.1795,4120.5128,4125.1282,4121.5385,4124.6154,4162.5641,4132.3077,4141.0256,4120
4100.5128,4109.7436,4122.5641,4172.8205,4107.1795,4120.5128,4123.5897,4128.2051,4153.3333,4136.9231,4130.2564,4116.4103
4087.6923,4108.2051,4115.3846,4167.6923,4104.6154,4123.0769,4121.5385,4130.7692,4146.1538,4124.1026,4114.8718,4103.5897
4097.4359,4110.7692,4124.1026,4170.7692,4125.1282,4133.3333,4124.6154,4136.4103,4154.359,4120,4129.2308,4109.2308
4110.2564,4110.2564,4135.3846,4183.0769,4129.7436,4134.8718,4134.8718,4138.9744,4154.8718,4143.0769,4137.9487,4125.1282
4110.2564,4112.8205,4131.2821,4186.1538,4107.1795,4120.5128,4138.9744,4133.8462,4141.0256,4154.359,4126.1538,4123.5897
4108.2051,4114.8718,4123.5897,4181.0256,4099.4872,4115.3846,4134.8718,4126.1538,4134.359,4131.7949,4121.0256,4109.2308
4097.9487,4114.8718,4117.4359,4172.8205,4117.9487,4132.3077,4134.8718,4123.0769,4138.9744,4107.1795,4121.5385,4099.4872
4087.6923,4119.4872,4110.2564,4169.2308,4117.4359,4137.4359,4134.359,4131.2821,4129.2308,4112.3077,4112.3077,4098.4615
4095.3846,4123.0769,4106.6667,4168.2051,4095.8974,4123.0769,4125.641,4132.3077,4109.2308,4121.0256,4106.1538,4099.4872
4096.9231,4121.5385,4105.641,4166.1538,4100,4117.9487,4119.4872,4120.5128,4117.4359,4110.7692,4109.2308,4094.359
4085.1282,4122.5641,4104.6154,4173.3333,4123.5897,4127.6923,4123.5897,4121.5385,4127.6923,4113.3333,4107.1795,4095.3846
4094.359,4128.2051,4114.359,4188.2051,4123.5897,4124.6154,4128.7179,4135.8974,4118.9744,4133.3333,4107.6923,4111.2821
4110.2564,4125.641,4125.641,4190.7692,4115.3846,4116.9231,4127.1795,4144.6154,4115.3846,4139.4872,4118.9744,4120
4111.2821,4120.5128,4124.1026,4183.5897,4119.4872,4120.5128,4125.641,4136.4103,4123.5897,4136.4103,4130.7692,4119.4872
4109.2308,4113.8462,4118.4615,4186.6667,4112.3077,4116.4103,4123.0769,4122.0513,4118.9744,4133.3333,4117.4359,4115.3846
4099.4872,4097.9487,4107.1795,4183.5897,4101.0256,4110.2564,4119.4872,4113.3333,4103.5897,4113.8462,4093.3333,4100.5128
4092.8205,4092.3077,4100,4170.2564,4109.2308,4116.4103,4121.0256,4117.4359,4094.8718,4098.4615,4098.4615,4085.1282
4100,4107.6923,4113.3333,4170.7692,4122.5641,4124.1026,4126.1538,4123.0769,4108.7179,4111.2821,4125.1282,4093.8462
4092.3077,4116.4103,4121.0256,4174.359,4132.8205,4125.641,4125.641,4120.5128,4123.5897,4125.1282,4129.2308,4107.1795
4077.9487,4115.3846,4107.6923,4167.1795,4137.4359,4125.641,4122.5641,4125.1282,4110.2564,4120.5128,4121.0256,4103.5897
4093.8462,4124.6154,4108.7179,4165.641,4122.5641,4123.5897,4128.2051,4136.9231,4100.5128,4122.5641,4129.2308,4105.641
4119.4872,4137.9487,4130.2564,4174.359,4105.1282,4121.5385,4138.9744,4139.4872,4124.6154,4141.0256,4141.0256,4122.0513
4115.3846,4133.8462,4132.8205,4173.8462,4110.2564,4127.1795,4136.9231,4137.9487,4127.6923,4143.5897,4140.5128,4127.6923
4099.4872,4128.2051,4119.4872,4167.6923,4122.5641,4128.2051,4123.5897,4136.9231,4092.3077,4122.5641,4130.2564,4108.2051
4100.5128,4143.5897,4128.2051,4168.7179,4123.0769,4120.5128,4122.0513,4131.7949,4094.359,4120.5128,4120.5128,4097.4359
4115.3846,4151.7949,4142.0513,4172.3077,4120.5128,4118.4615,4128.7179,4124.1026,4125.641,4136.4103,4122.0513,4108.7179
4113.3333,4140,4128.2051,4170.2564,4119.4872,4120.5128,4124.6154,4119.4872,4110.2564,4120,4125.1282,4110.2564
4095.8974,4137.9487,4111.2821,4167.1795,4128.7179,4124.6154,4118.4615,4124.1026,4086.6667,4101.0256,4118.9744,4101.0256
4099.4872,4140.5128,4119.4872,4172.3077,4125.641,4125.1282,4123.5897,4130.2564,4097.4359,4112.8205,4120.5128,4098.4615
4110.2564,4133.3333,4125.641,4174.8718,4100.5128,4119.4872,4128.7179,4129.7436,4101.5385,4116.9231,4121.5385,4098.4615
4098.4615,4129.2308,4111.7949,4165.1282,4105.1282,4130.2564,4128.2051,4123.0769,4094.359,4104.1026,4115.3846,4098.4615
4091.2821,4134.359,4110.2564,4164.1026,4122.5641,4141.5385,4126.1538,4124.1026,4108.7179,4107.6923,4125.1282,4106.1538
4110.7692,4134.359,4124.1026,4182.5641,4106.1538,4122.5641,4124.6154,4134.359,4123.5897,4123.0769,4142.5641,4111.7949
4130.2564,4130.2564,4135.3846,4195.3846,4103.5897,4108.7179,4126.6667,4141.5385,4119.4872,4135.3846,4144.1026,4118.4615
4128.2051,4122.0513,4133.8462,4186.1538,4121.0256,4117.4359,4126.6667,4136.9231,4120,4136.9231,4134.359,4126.6667
4120.5128,4112.3077,4124.1026,4177.9487,4113.8462,4121.0256,4122.0513,4124.6154,4128.7179,4121.5385,4130.7692,4121.0256
4110.7692,4115.8974,4117.4359,4180,4098.9744,4118.9744,4119.4872,4120.5128,4112.8205,4106.1538,4124.1026,4105.641
4104.6154,4125.641,4120,4174.8718,4101.5385,4121.0256,4120.5128,4123.0769,4093.8462,4104.6154,4120,4101.5385
4111.2821,4127.1795,4127.6923,4167.6923,4103.0769,4113.3333,4120.5128,4129.2308,4114.359,4115.3846,4126.6667,4113.3333
4123.0769,4128.2051,4138.4615,4172.8205,4103.0769,4104.6154,4124.1026,4127.6923,4134.8718,4120.5128,4131.2821,4117.4359
4125.1282,4123.0769,4140.5128,4171.2821,4105.1282,4108.7179,4123.5897,4118.9744,4115.3846,4115.8974,4127.6923,4109.2308
4114.8718,4117.4359,4130.2564,4151.2821,4098.4615,4121.5385,4121.0256,4125.1282,4099.4872,4117.4359,4121.0256,4108.7179
4112.3077,4123.0769,4130.2564,4147.1795,4098.9744,4128.2051,4125.641,4128.2051,4114.8718,4123.0769,4123.5897,4109.2308
4119.4872,4125.1282,4142.5641,4163.0769,4102.5641,4113.3333,4125.641,4125.1282,4125.641,4129.7436,4123.5897,4104.1026
4121.5385,4118.9744,4145.1282,4164.6154,4104.6154,4106.6667,4123.0769,4131.2821,4116.4103,4132.3077,4121.0256,4110.7692
4126.6667,4117.4359,4142.5641,4156.9231,4106.6667,4130.7692,4129.7436,4130.2564,4117.4359,4128.2051,4133.3333,4127.1795
4137.9487,4118.4615,4148.2051,4164.1026,4108.2051,4139.4872,4129.2308,4116.4103,4141.5385,4127.1795,4149.2308,4130.7692
4136.4103,4121.5385,4153.3333,4174.8718,4111.2821,4124.6154,4119.4872,4121.0256,4139.4872,4137.9487,4139.4872,4125.1282
4126.6667,4124.6154,4153.8462,4168.7179,4104.6154,4117.9487,4121.0256,4131.7949,4121.0256,4145.1282,4133.8462,4131.7949
4127.1795,4130.7692,4155.3846,4157.4359,4089.2308,4115.3846,4127.1795,4126.6667,4141.5385,4143.0769,4154.359,4143.5897
4124.6154,4143.0769,4155.8974,4158.4615,4090.7692,4112.8205,4123.0769,4123.5897,4160,4138.9744,4156.4103,4136.4103
4123.5897,4151.7949,4154.359,4167.1795,4114.359,4121.0256,4120.5128,4125.641,4152.3077,4140,4140.5128,4127.1795
4137.4359,4152.8205,4156.9231,4168.2051,4122.5641,4126.6667,4127.1795,4129.2308,4149.7436,4149.2308,4146.1538,4137.4359
4138.9744,4145.1282,4155.8974,4156.9231,4101.0256,4123.5897,4125.641,4126.1538,4139.4872,4142.5641,4150.7692,4132.8205
4121.5385,4136.9231,4142.5641,4151.2821,4088.7179,4116.9231,4114.8718,4116.4103,4126.1538,4119.4872,4130.2564,4108.2051
4122.5641,4143.5897,4142.0513,4163.0769,4103.0769,4106.1538,4113.3333,4121.5385,4145.641,4121.5385,4139.4872,4117.9487
4138.4615,4148.7179,4155.3846,4165.641,4114.8718,4108.2051,4122.0513,4133.8462,4149.7436,4138.4615,4160.5128,4137.9487
4136.9231,4138.9744,4157.4359,4154.8718,4100,4124.6154,4124.1026,4131.7949,4119.4872,4136.9231,4135.3846,4124.1026
4134.8718,4135.3846,4152.3077,4154.359,4090.7692,4123.5897,4120.5128,4122.5641,4132.8205,4131.2821,4123.0769,4118.4615
4143.5897,4143.0769,4156.4103,4158.9744,4111.7949,4116.9231,4126.1538,4124.6154,4168.2051,4142.0513,4155.8974,4140.5128
4143.0769,4137.4359,4160.5128,4156.9231,4124.1026,4131.7949,4135.3846,4135.3846,4153.8462,4157.9487,4164.1026,4146.1538
4137.9487,4125.1282,4155.8974,4154.8718,4110.7692,4142.5641,4132.3077,4141.5385,4137.4359,4152.3077,4146.6667,4133.3333
4135.3846,4131.2821,4162.0513,4155.8974,4104.1026,4129.2308,4132.3077,4138.4615,4149.2308,4138.4615,4158.4615,4135.8974
4127.6923,4135.3846,4171.7949,4153.8462,4103.5897,4120.5128,4136.4103,4130.7692,4148.2051,4138.9744,4168.7179,4137.4359
4120.5128,4125.641,4163.0769,4152.8205,4091.2821,4126.6667,4130.2564,4127.6923,4140,4136.9231,4149.7436,4120
4120.5128,4126.1538,4153.3333,4155.3846,4088.7179,4126.1538,4120.5128,4129.2308,4141.0256,4125.641,4136.4103,4104.6154
4130.2564,4136.9231,4161.0256,4157.4359,4106.1538,4120,4122.0513,4121.0256,4132.3077,4124.1026,4138.9744,4112.8205
4137.9487,4138.9744,4163.0769,4155.8974,4120,4125.641,4125.1282,4113.3333,4124.1026,4124.6154,4140.5128,4124.6154
4132.3077,4134.359,4153.8462,4152.3077,4104.6154,4126.1538,4122.0513,4118.4615,4131.2821,4117.9487,4138.4615,4116.4103
4133.8462,4138.4615,4160.5128,4154.8718,4080,4117.9487,4121.0256,4121.5385,4125.641,4125.1282,4136.4103,4110.7692
4134.8718,4135.8974,4163.5897,4148.7179,4087.6923,4128.7179,4126.1538,4120,4116.4103,4133.3333,4129.7436,4111.2821
4124.6154,4137.9487,4156.4103,4141.0256,4109.7436,4138.4615,4134.359,4129.7436,4140.5128,4127.1795,4139.4872,4115.3846
4125.641,4152.8205,4161.0256,4148.2051,4115.3846,4127.1795,4132.8205,4135.3846,4147.6923,4126.1538,4161.0256,4122.0513
4133.3333,4149.2308,4164.1026,4150.2564,4106.6667,4121.0256,4126.6667,4123.0769,4120,4127.6923,4148.7179,4120
4121.5385,4129.2308,4153.8462,4146.1538,4094.359,4129.2308,4126.1538,4120,4111.7949,4121.5385,4115.3846,4105.1282
4112.8205,4128.7179,4150.2564,4149.2308,4091.2821,4129.2308,4127.1795,4128.2051,4126.1538,4118.9744,4124.6154,4101.5385
