"AF3","F7","F3","FC5","T7","P7","O1","O2","FC6","F4","F8","AF4"
4104.6154,4107.6923,4103.5897,4045.1282,4120,4121.0256,4138.4615,4126.6667,4147.6923,4132.3077,4121.0256,4090.2564
4103.0769,4111.7949,4107.6923,4049.7436,4123.0769,4126.1538,4136.9231,4125.641,4148.2051,4128.7179,4130.7692,4098.4615
4114.8718,4112.3077,4114.359,4048.7179,4126.1538,4124.1026,4138.4615,4125.641,4150.2564,4138.9744,4137.9487,4104.1026
4121.0256,4109.7436,4109.2308,4044.1026,4127.1795,4123.5897,4137.9487,4123.5897,4150.7692,4140.5128,4122.0513,4095.8974
4110.2564,4106.1538,4097.9487,4042.5641,4125.641,4127.6923,4136.9231,4121.5385,4152.3077,4128.7179,4116.4103,4091.2821
4102.0513,4108.7179,4099.4872,4043.5897,4123.5897,4128.7179,4137.9487,4121.5385,4148.7179,4122.0513,4120,4088.2051
4108.2051,4114.359,4107.1795,4045.1282,4127.1795,4126.6667,4133.8462,4120.5128,4141.5385,4124.1026,4114.359,4085.1282
4115.8974,4118.4615,4107.6923,4048.7179,4121.5385,4125.1282,4130.2564,4120.5128,4140.5128,4125.641,4109.2308,4090.2564
4111.2821,4114.359,4102.0513,4050.7692,4102.5641,4118.9744,4131.2821,4121.0256,4143.5897,4126.1538,4110.2564,4089.2308
4104.1026,4112.3077,4104.6154,4047.1795,4103.0769,4121.5385,4134.8718,4123.5897,4141.0256,4123.5897,4112.3077,4082.5641
4113.8462,4117.4359,4110.2564,4050.7692,4130.2564,4133.8462,4136.9231,4124.1026,4136.4103,4119.4872,4110.7692,4079.4872
4126.6667,4115.8974,4106.6667,4053.8462,4138.4615,4133.3333,4135.3846,4122.0513,4139.4872,4122.0513,4112.3077,4082.5641
4117.9487,4116.9231,4106.1538,4050.2564,4129.7436,4128.2051,4134.8718,4124.1026,4147.6923,4126.6667,4118.4615,4094.359
4105.641,4118.9744,4114.8718,4045.641,4135.3846,4135.3846,4137.4359,4129.7436,4151.7949,4129.2308,4129.2308,4104.6154
4107.6923,4113.3333,4112.3077,4038.4615,4135.8974,4141.0256,4137.4359,4127.1795,4142.5641,4125.641,4124.6154,4091.7949
4104.6154,4110.2564,4095.3846,4063.5897,4124.6154,4137.4359,4133.3333,4118.9744,4131.2821,4109.7436,4108.2051,4069.2308
4103.0769,4112.3077,4090.7692,4141.0256,4124.6154,4138.4615,4133.8462,4125.1282,4137.9487,4109.2308,4109.7436,4072.8205
4119.4872,4113.3333,4106.1538,4205.1282,4131.2821,4136.9231,4137.9487,4132.8205,4152.3077,4131.2821,4123.5897,4090.2564
4122.0513,4113.3333,4117.4359,4216.4103,4127.6923,4129.2308,4137.9487,4131.2821,4155.3846,4138.4615,4126.1538,4092.3077
4105.641,4111.7949,4113.3333,4228.7179,4121.0256,4129.7436,4135.3846,4129.2308,4152.8205,4130.7692,4120.5128,4087.1795
4105.641,4111.7949,4113.3333,4228.7179,4121.0256,4129.7436,4135.3846,4129.2308,4152.8205,4130.7692,4120.5128,4087.1795
4112.3077,4116.4103,4114.359,4264.1026,4131.2821,4131.2821,4135.8974,4130.2564,4152.8205,4134.359,4128.2051,4089.7436
4123.5897,4118.4615,4123.5897,4283.0769,4137.4359,4127.1795,4136.9231,4131.2821,4153.8462,4141.0256,4140,4095.8974
4112.8205,4111.7949,4121.5385,4289.7436,4125.641,4124.1026,4138.4615,4130.7692,4152.8205,4136.4103,4139.4872,4097.4359
4101.5385,4109.7436,4108.2051,4304.1026,4119.4872,4128.7179,4141.0256,4132.8205,4149.2308,4131.2821,4134.359,4095.3846
4096.4103,4110.7692,4102.0513,4315.3846,4128.2051,4136.9231,4140,4132.8205,4144.6154,4124.6154,4126.1538,4081.5385
4087.6923,4111.2821,4107.1795,4320.5128,4137.4359,4138.4615,4137.4359,4128.7179,4141.5385,4118.4615,4119.4872,4070.2564
4088.7179,4108.2051,4104.1026,4335.8974,4133.8462,4129.7436,4138.4615,4123.0769,4141.5385,4117.9487,4120.5128,4075.8974
4098.4615,4105.641,4095.3846,4356.4103,4124.6154,4122.0513,4139.4872,4120,4144.1026,4109.2308,4120.5128,4078.4615
4102.0513,4110.2564,4097.9487,4364.1026,4128.2051,4128.7179,4139.4872,4123.5897,4146.6667,4104.6154,4118.4615,4075.8974
4097.9487,4109.7436,4105.641,4371.2821,4136.9231,4136.9231,4140,4125.1282,4146.6667,4114.8718,4121.0256,4079.4872
4091.7949,4106.1538,4104.6154,4386.1538,4126.1538,4136.9231,4142.5641,4124.1026,4142.0513,4117.4359,4122.5641,4079.4872
4094.359,4107.6923,4101.5385,4395.8974,4114.359,4132.3077,4142.0513,4123.5897,4140,4110.2564,4123.0769,4074.8718
4098.4615,4107.6923,4101.0256,4399.4872,4122.5641,4127.1795,4137.9487,4125.1282,4146.6667,4111.2821,4124.1026,4074.8718
4097.9487,4108.7179,4102.0513,4406.6667,4130.2564,4125.1282,4143.0769,4126.1538,4153.3333,4121.0256,4126.1538,4078.4615
4101.0256,4109.2308,4100.5128,4411.2821,4126.6667,4129.2308,4150.2564,4125.641,4147.6923,4125.1282,4129.2308,4081.0256
4097.4359,4110.7692,4099.4872,4416.4103,4122.5641,4128.7179,4144.6154,4128.2051,4137.4359,4123.5897,4124.1026,4080
4091.7949,4108.7179,4096.4103,4424.1026,4127.6923,4123.0769,4137.9487,4128.2051,4137.9487,4119.4872,4110.2564,4079.4872
4091.2821,4103.5897,4092.3077,4424.6154,4133.8462,4128.2051,4141.5385,4123.5897,4136.9231,4113.8462,4108.2051,4082.0513
4092.3077,4107.1795,4097.9487,4429.2308,4133.8462,4134.359,4144.1026,4126.1538,4136.4103,4116.4103,4117.4359,4084.1026
4094.359,4108.2051,4104.1026,4441.0256,4131.7949,4130.7692,4138.4615,4132.8205,4144.6154,4126.1538,4123.5897,4088.2051
4098.9744,4106.1538,4100.5128,4438.9744,4128.2051,4124.1026,4136.9231,4129.2308,4142.5641,4124.6154,4126.1538,4092.8205
4094.359,4108.2051,4090.7692,4431.2821,4127.1795,4123.5897,4138.9744,4126.1538,4133.8462,4110.7692,4121.5385,4082.0513
4086.1538,4107.6923,4088.7179,4434.359,4135.3846,4132.8205,4141.5385,4126.1538,4136.4103,4106.6667,4109.7436,4067.1795
4089.2308,4105.1282,4096.4103,4440,4133.3333,4135.8974,4140.5128,4124.6154,4135.8974,4109.7436,4104.6154,4066.6667
4098.9744,4108.2051,4104.1026,4446.1538,4116.4103,4124.6154,4136.9231,4127.1795,4131.7949,4112.3077,4115.3846,4080.5128
4104.6154,4114.359,4112.8205,4458.4615,4124.1026,4122.5641,4140,4133.3333,4145.1282,4120,4124.1026,4092.3077
4108.2051,4111.7949,4118.4615,4463.5897,4148.7179,4137.9487,4144.1026,4129.7436,4152.8205,4123.5897,4125.641,4093.8462
4117.4359,4109.2308,4116.4103,4458.4615,4146.1538,4137.9487,4141.5385,4121.0256,4141.0256,4114.8718,4129.2308,4092.8205
4116.9231,4114.8718,4111.2821,4458.9744,4137.4359,4124.6154,4136.9231,4122.5641,4134.359,4114.359,4119.4872,4090.2564
4110.7692,4113.3333,4115.3846,4467.1795,4143.5897,4127.6923,4135.8974,4125.641,4137.4359,4125.1282,4107.1795,4089.7436
4117.9487,4109.7436,4125.1282,4473.3333,4147.1795,4137.4359,4136.9231,4124.1026,4142.0513,4125.641,4121.5385,4095.3846
4124.1026,4112.8205,4123.5897,4473.8462,4139.4872,4136.4103,4139.4872,4124.1026,4148.7179,4123.5897,4139.4872,4102.0513
4120,4110.7692,4120.5128,4470.7692,4131.7949,4128.2051,4141.0256,4129.2308,4153.3333,4128.2051,4130.7692,4102.0513
4118.4615,4107.1795,4122.5641,4466.1538,4130.2564,4123.5897,4139.4872,4128.2051,4141.5385,4124.1026,4113.8462,4098.4615
4124.6154,4107.1795,4122.5641,4460,4133.8462,4124.1026,4136.4103,4117.9487,4138.4615,4118.9744,4127.6923,4110.2564
4127.1795,4107.6923,4120.5128,4460,4140.5128,4126.1538,4136.4103,4123.0769,4148.7179,4131.7949,4136.9231,4123.0769
4123.0769,4106.1538,4121.5385,4462.0513,4140,4126.6667,4137.4359,4129.7436,4141.5385,4136.4103,4111.2821,4113.8462
4133.3333,4095.8974,4124.6154,4460,4136.9231,4124.6154,4133.3333,4114.359,4137.4359,4124.1026,4106.6667,4120
4153.8462,4091.2821,4128.2051,4461.0256,4138.4615,4121.5385,4129.2308,4108.7179,4146.6667,4128.7179,4134.8718,4160.5128
4149.2308,4100.5128,4128.7179,4463.0769,4136.9231,4124.1026,4134.359,4124.1026,4147.6923,4145.1282,4132.3077,4156.4103
4123.0769,4104.1026,4118.9744,4460.5128,4137.4359,4126.1538,4132.8205,4124.1026,4142.0513,4130.7692,4112.3077,4105.1282
4124.6154,4097.9487,4111.2821,4454.8718,4140,4123.0769,4125.1282,4113.3333,4151.2821,4109.7436,4152.3077,4132.3077
4147.1795,4095.8974,4123.5897,4458.4615,4138.4615,4126.6667,4130.7692,4122.5641,4165.641,4132.3077,4228.2051,4226.1538
4160.5128,4100.5128,4141.0256,4459.4872,4136.9231,4134.8718,4137.4359,4123.0769,4176.4103,4164.1026,4295.8974,4293.8462
4168.7179,4091.7949,4138.9744,4447.1795,4139.4872,4133.3333,4128.2051,4112.8205,4191.2821,4159.4872,4372.3077,4343.0769
4172.8205,4084.6154,4131.7949,4446.1538,4140,4126.6667,4118.9744,4117.9487,4187.6923,4155.3846,4451.2821,4407.6923
4170.7692,4093.8462,4143.5897,4459.4872,4136.4103,4121.5385,4120,4117.9487,4171.2821,4174.8718,4496.4103,4481.5385
4173.8462,4097.9487,4160.5128,4462.5641,4143.0769,4121.0256,4120.5128,4110.2564,4180.5128,4187.1795,4520.5128,4544.1026
4184.6154,4093.8462,4171.2821,4460,4155.8974,4128.7179,4123.5897,4117.4359,4205.1282,4190.7692,4563.5897,4585.1282
4190.7692,4092.8205,4174.359,4456.9231,4158.9744,4130.2564,4127.1795,4125.1282,4202.0513,4206.1538,4588.2051,4613.8462
4185.1282,4099.4872,4168.2051,4448.2051,4152.8205,4120,4121.5385,4104.1026,4188.2051,4202.5641,4576.4103,4632.8205
4184.6154,4109.2308,4164.1026,4451.7949,4154.359,4116.9231,4117.9487,4095.8974,4201.5385,4183.0769,4568.2051,4642.5641
4187.6923,4110.7692,4163.5897,4460,4160.5128,4123.0769,4121.0256,4119.4872,4201.5385,4190.2564,4558.4615,4650.2564
4169.7436,4108.2051,4167.1795,4456.9231,4160.5128,4122.0513,4124.1026,4123.0769,4178.9744,4204.1026,4557.4359,4652.3077
4147.6923,4108.7179,4171.2821,4457.9487,4155.8974,4118.4615,4122.5641,4105.641,4184.1026,4195.8974,4583.5897,4645.1282
4158.4615,4113.3333,4173.8462,4457.9487,4151.7949,4121.5385,4121.5385,4107.1795,4196.4103,4192.8205,4585.641,4654.8718
4173.8462,4118.9744,4180.5128,4448.7179,4159.4872,4124.6154,4122.0513,4117.4359,4195.8974,4208.2051,4552.8205,4677.9487
4159.4872,4112.3077,4178.4615,4442.0513,4163.5897,4123.0769,4120,4108.7179,4201.5385,4204.1026,4548.2051,4674.359
4146.1538,4106.6667,4170.7692,4440.5128,4160.5128,4123.0769,4120,4101.5385,4204.1026,4180,4552.8205,4647.1795
4150.2564,4112.3077,4175.3846,4444.1026,4167.1795,4126.6667,4124.6154,4111.7949,4204.1026,4178.9744,4536.4103,4635.3846
4142.5641,4110.2564,4180.5128,4443.5897,4171.2821,4126.6667,4124.6154,4116.9231,4207.1795,4190.7692,4527.6923,4629.2308
4130.2564,4109.7436,4176.4103,4433.8462,4165.1282,4123.0769,4121.0256,4110.7692,4194.359,4186.1538,4525.641,4609.7436
4143.5897,4111.2821,4180,4429.7436,4163.5897,4124.6154,4119.4872,4110.7692,4191.2821,4192.8205,4519.4872,4613.8462
4156.4103,4103.0769,4184.1026,4432.8205,4171.2821,4130.7692,4116.9231,4122.0513,4209.2308,4203.5897,4511.2821,4617.4359
4144.1026,4098.4615,4173.3333,4428.7179,4170.2564,4130.2564,4116.4103,4127.6923,4204.6154,4186.6667,4503.5897,4582.0513
4145.641,4107.6923,4176.9231,4426.6667,4165.1282,4123.0769,4121.0256,4121.0256,4188.7179,4184.6154,4515.8974,4571.7949
4161.5385,4111.7949,4191.7949,4425.1282,4170.2564,4123.5897,4125.1282,4122.0513,4181.0256,4214.359,4522.0513,4588.7179
4155.3846,4104.1026,4188.2051,4415.8974,4177.9487,4126.6667,4124.6154,4126.6667,4181.5385,4208.7179,4514.8718,4578.9744
4135.3846,4107.6923,4178.4615,4410.7692,4175.8974,4122.0513,4120.5128,4115.8974,4200.5128,4174.8718,4515.3846,4552.8205
4130.2564,4116.4103,4180.5128,4408.7179,4171.2821,4119.4872,4116.9231,4110.7692,4209.7436,4173.8462,4510.7692,4531.2821
4144.1026,4109.7436,4185.1282,4402.0513,4171.2821,4122.0513,4116.9231,4114.8718,4190.7692,4190.7692,4497.9487,4528.2051
4155.3846,4109.2308,4185.641,4397.4359,4170.2564,4118.4615,4120.5128,4113.3333,4185.1282,4188.2051,4497.4359,4536.4103
4145.1282,4113.8462,4183.5897,4395.8974,4171.2821,4124.6154,4123.5897,4112.8205,4195.8974,4184.1026,4495.3846,4516.9231
4131.2821,4111.2821,4184.1026,4389.2308,4182.0513,4140.5128,4123.0769,4117.4359,4193.3333,4184.6154,4484.1026,4483.5897
4137.4359,4108.7179,4186.6667,4382.0513,4188.7179,4136.9231,4128.7179,4119.4872,4189.2308,4180,4489.7436,4482.5641
4149.7436,4111.2821,4184.6154,4381.5385,4177.4359,4126.6667,4137.4359,4121.5385,4193.8462,4185.1282,4504.1026,4487.6923
4157.4359,4116.4103,4185.641,4386.1538,4168.7179,4130.2564,4139.4872,4123.5897,4197.4359,4200.5128,4502.5641,4481.0256
4158.4615,4113.3333,4187.1795,4383.5897,4177.4359,4132.8205,4135.8974,4121.5385,4193.8462,4199.4872,4490.7692,4465.641
4154.359,4109.7436,4181.0256,4374.8718,4180.5128,4131.7949,4130.2564,4120.5128,4186.6667,4187.1795,4488.7179,4445.641
4151.2821,4115.3846,4174.359,4370.2564,4178.9744,4136.9231,4130.2564,4121.5385,4184.1026,4181.0256,4496.9231,4438.4615
4150.7692,4115.3846,4172.8205,4367.6923,4182.5641,4137.9487,4131.7949,4119.4872,4183.5897,4181.0256,4493.8462,4434.8718
4157.9487,4111.2821,4176.9231,4365.641,4181.5385,4131.7949,4134.8718,4120,4188.7179,4181.0256,4495.3846,4426.1538
4165.1282,4110.7692,4185.1282,4364.6154,4176.9231,4126.6667,4140.5128,4126.1538,4203.5897,4187.6923,4513.8462,4429.2308
4154.359,4110.2564,4184.6154,4360,4175.3846,4124.1026,4136.9231,4125.1282,4198.4615,4190.7692,4501.0256,4427.1795
4132.3077,4109.2308,4171.2821,4351.2821,4177.4359,4126.6667,4127.1795,4109.7436,4170.2564,4170.7692,4465.641,4378.4615
4136.9231,4109.7436,4166.6667,4347.6923,4180,4128.7179,4128.7179,4108.2051,4172.8205,4163.5897,4476.4103,4359.4872
4165.1282,4115.3846,4185.1282,4350.7692,4185.641,4124.6154,4139.4872,4125.641,4197.9487,4190.7692,4501.5385,4408.2051
4178.4615,4117.9487,4197.4359,4354.8718,4192.3077,4125.641,4142.0513,4132.8205,4197.9487,4206.1538,4494.359,4414.359
4168.2051,4109.2308,4189.7436,4347.1795,4193.8462,4128.7179,4137.4359,4124.1026,4183.5897,4195.3846,4486.6667,4367.1795
4160.5128,4106.6667,4185.1282,4330.2564,4190.2564,4124.6154,4133.8462,4118.4615,4185.641,4191.2821,4491.2821,4366.6667
4171.7949,4110.2564,4187.6923,4326.6667,4187.6923,4122.0513,4131.2821,4118.4615,4190.7692,4199.4872,4494.359,4396.9231
4170.7692,4110.2564,4178.9744,4324.6154,4199.4872,4126.1538,4128.2051,4121.0256,4183.0769,4188.7179,4474.359,4366.6667
4152.3077,4110.7692,4166.6667,4311.7949,4212.3077,4126.1538,4125.1282,4123.0769,4180,4170.7692,4463.5897,4330.2564
4147.6923,4110.7692,4165.641,4306.6667,4212.8205,4120.5128,4124.6154,4121.0256,4185.641,4174.8718,4483.0769,4342.0513
4156.9231,4110.7692,4170.2564,4310.7692,4214.8718,4118.4615,4125.641,4123.5897,4185.1282,4184.6154,4488.2051,4352.3077
4161.0256,4109.2308,4165.1282,4309.2308,4226.1538,4118.9744,4123.5897,4127.1795,4184.6154,4178.9744,4470.7692,4339.4872
4149.2308,4107.1795,4157.9487,4302.0513,4244.1026,4120.5128,4124.6154,4123.0769,4185.1282,4166.6667,4462.0513,4316.4103
4137.9487,4105.641,4154.8718,4296.9231,4260,4123.5897,4127.1795,4115.8974,4177.4359,4160.5128,4461.5385,4304.6154
4141.5385,4106.6667,4153.3333,4289.2308,4258.9744,4126.1538,4126.1538,4116.4103,4172.8205,4159.4872,4466.1538,4312.3077
4148.7179,4113.8462,4156.4103,4285.1282,4251.7949,4123.5897,4129.7436,4126.1538,4177.4359,4162.5641,4469.7436,4310.2564
4140,4111.2821,4155.8974,4281.5385,4249.7436,4120,4134.8718,4125.1282,4175.3846,4158.4615,4450.7692,4285.1282
4136.4103,4106.6667,4154.8718,4277.9487,4249.2308,4123.5897,4137.4359,4118.4615,4167.1795,4154.359,4441.5385,4277.9487
4153.3333,4112.8205,4164.1026,4281.5385,4253.3333,4130.2564,4137.9487,4124.1026,4170.7692,4167.6923,4458.9744,4294.359
4160.5128,4112.3077,4169.7436,4282.0513,4258.4615,4127.6923,4136.4103,4126.1538,4176.9231,4173.3333,4467.6923,4282.0513
4156.4103,4107.1795,4168.2051,4275.3846,4254.8718,4124.6154,4133.8462,4118.9744,4170.7692,4167.6923,4453.3333,4263.5897
4153.8462,4105.1282,4166.1538,4267.1795,4257.4359,4132.3077,4135.8974,4120.5128,4166.6667,4168.2051,4433.3333,4264.1026
4146.6667,4104.1026,4160,4257.9487,4270.7692,4139.4872,4138.4615,4122.5641,4169.2308,4161.5385,4427.1795,4253.3333
4146.6667,4108.7179,4160.5128,4257.4359,4274.359,4140,4136.9231,4123.5897,4170.7692,4158.4615,4432.3077,4251.2821
4158.4615,4110.2564,4171.2821,4258.9744,4271.2821,4137.9487,4137.9487,4131.7949,4170.7692,4169.2308,4427.6923,4260
4159.4872,4108.7179,4171.2821,4253.3333,4270.2564,4130.2564,4140,4132.3077,4172.3077,4170.7692,4428.2051,4248.2051
4151.2821,4107.1795,4168.7179,4246.1538,4262.5641,4121.5385,4140,4121.5385,4175.8974,4171.2821,4437.4359,4238.9744
4152.8205,4107.1795,4169.7436,4243.5897,4257.9487,4122.0513,4137.9487,4119.4872,4172.3077,4170.7692,4429.2308,4243.0769
4155.8974,4107.1795,4159.4872,4236.9231,4257.4359,4125.641,4131.7949,4123.0769,4160.5128,4151.2821,4418.4615,4233.3333
4154.359,4107.6923,4152.8205,4229.2308,4247.1795,4121.0256,4128.7179,4123.0769,4165.1282,4147.1795,4428.2051,4222.0513
4154.8718,4111.2821,4160.5128,4232.3077,4247.6923,4123.5897,4134.8718,4124.6154,4167.6923,4164.1026,4425.641,4223.0769
4155.3846,4109.2308,4155.8974,4232.8205,4262.5641,4137.9487,4139.4872,4124.1026,4153.3333,4152.3077,4412.8205,4210.2564
4151.7949,4106.1538,4148.2051,4226.6667,4265.641,4138.4615,4138.4615,4118.9744,4160.5128,4142.0513,4429.2308,4204.6154
4150.2564,4111.2821,4161.0256,4228.2051,4260,4125.641,4140,4126.6667,4183.0769,4162.0513,4447.6923,4220.5128
4157.4359,4111.7949,4168.7179,4229.2308,4259.4872,4126.1538,4139.4872,4136.4103,4180,4167.1795,4435.3846,4224.6154
4154.8718,4106.6667,4157.4359,4218.9744,4258.9744,4132.8205,4136.9231,4129.7436,4157.4359,4149.2308,4424.6154,4206.1538
4152.3077,4107.1795,4152.3077,4212.3077,4256.9231,4128.2051,4137.9487,4125.641,4160,4148.7179,4441.5385,4198.9744
4163.0769,4112.3077,4156.9231,4216.4103,4258.4615,4130.7692,4138.9744,4132.8205,4171.7949,4160.5128,4447.6923,4208.2051
4161.5385,4112.3077,4155.8974,4216.4103,4261.5385,4145.641,4141.0256,4131.7949,4164.6154,4156.9231,4429.2308,4198.9744
4150.7692,4106.6667,4158.9744,4212.3077,4255.8974,4145.1282,4141.5385,4123.0769,4162.5641,4156.9231,4426.1538,4190.2564
4148.7179,4104.6154,4166.1538,4211.7949,4246.1538,4133.8462,4138.4615,4121.0256,4169.7436,4159.4872,4438.9744,4191.7949
4152.8205,4108.2051,4165.1282,4212.3077,4245.641,4133.3333,4142.0513,4129.2308,4168.2051,4154.8718,4444.6154,4186.1538
4164.1026,4109.7436,4165.1282,4210.7692,4246.6667,4136.9231,4148.7179,4135.3846,4161.5385,4157.9487,4435.8974,4187.6923
4166.1538,4105.641,4163.5897,4201.5385,4242.0513,4137.4359,4147.1795,4130.7692,4153.3333,4154.8718,4414.359,4184.6154
4145.641,4100.5128,4151.7949,4189.7436,4241.0256,4139.4872,4143.0769,4124.1026,4145.641,4143.0769,4402.5641,4157.4359
4138.4615,4103.5897,4155.3846,4187.1795,4245.1282,4137.9487,4141.0256,4125.1282,4151.2821,4148.7179,4411.2821,4155.8974
4147.6923,4102.5641,4167.6923,4188.7179,4236.9231,4134.359,4137.4359,4124.1026,4161.5385,4154.8718,4410.2564,4169.7436
4147.6923,4096.4103,4159.4872,4184.6154,4228.2051,4135.8974,4135.8974,4126.1538,4154.359,4140,4402.0513,4154.8718
4148.2051,4101.5385,4149.7436,4178.9744,4230.7692,4136.4103,4140,4138.9744,4149.2308,4137.4359,4403.0769,4143.0769
4155.8974,4106.6667,4151.7949,4174.8718,4233.3333,4133.8462,4136.9231,4133.8462,4154.8718,4149.7436,4407.1795,4147.6923
4157.4359,4106.1538,4150.7692,4171.7949,4233.3333,4135.8974,4132.3077,4117.4359,4156.4103,4143.0769,4403.5897,4146.1538
4146.1538,4103.5897,4142.0513,4165.641,4230.7692,4137.9487,4134.8718,4123.0769,4150.2564,4131.7949,4390.2564,4132.8205
4131.2821,4100.5128,4137.9487,4154.8718,4226.6667,4135.3846,4136.9231,4126.6667,4145.641,4130.2564,4386.1538,4119.4872
4132.8205,4105.1282,4146.1538,4151.2821,4232.3077,4137.4359,4137.9487,4120,4152.3077,4131.7949,4393.8462,4124.1026
4143.5897,4109.2308,4153.8462,4154.8718,4229.2308,4139.4872,4139.4872,4128.2051,4159.4872,4143.0769,4380.5128,4137.9487
4140,4105.1282,4149.7436,4148.7179,4211.2821,4134.359,4138.4615,4131.2821,4153.8462,4146.1538,4370.7692,4134.359
4134.359,4104.6154,4147.1795,4138.9744,4214.359,4134.8718,4141.5385,4124.1026,4152.3077,4136.9231,4387.1795,4124.1026
4138.4615,4108.7179,4151.7949,4140,4230.7692,4141.5385,4144.6154,4130.2564,4158.4615,4135.8974,4395.8974,4126.6667
4138.9744,4111.2821,4156.4103,4143.5897,4227.1795,4138.4615,4143.5897,4137.9487,4155.3846,4141.5385,4391.7949,4123.5897
4143.0769,4107.6923,4159.4872,4141.0256,4217.9487,4137.9487,4144.6154,4133.3333,4154.359,4150.2564,4394.359,4123.5897
4152.3077,4105.1282,4160.5128,4137.9487,4214.359,4141.5385,4142.0513,4130.2564,4160,4151.7949,4387.1795,4125.1282
4152.8205,4105.641,4157.4359,4136.4103,4211.7949,4131.2821,4134.359,4127.1795,4154.359,4146.1538,4379.4872,4119.4872
4145.1282,4104.1026,4156.4103,4130.2564,4215.8974,4128.2051,4128.2051,4119.4872,4143.0769,4139.4872,4374.8718,4113.8462
4136.4103,4103.5897,4150.7692,4118.9744,4212.3077,4136.9231,4129.2308,4123.0769,4133.3333,4137.9487,4346.6667,4100.5128
4133.8462,4106.6667,4149.2308,4116.9231,4198.9744,4130.7692,4133.8462,4126.1538,4137.4359,4143.0769,4342.5641,4091.7949
4149.2308,4111.2821,4167.1795,4126.1538,4206.1538,4122.5641,4138.4615,4121.5385,4155.8974,4153.3333,4380,4113.8462
4160.5128,4108.7179,4172.8205,4126.6667,4222.5641,4133.3333,4137.9487,4123.0769,4155.8974,4156.4103,4387.1795,4126.1538
4144.1026,4099.4872,4149.2308,4112.8205,4214.8718,4141.0256,4134.359,4126.1538,4143.0769,4138.4615,4357.9487,4095.8974
4129.2308,4103.0769,4139.4872,4103.0769,4205.1282,4133.8462,4136.9231,4129.2308,4141.5385,4127.1795,4345.1282,4076.9231
4138.4615,4109.7436,4150.7692,4103.5897,4211.7949,4132.3077,4136.9231,4129.7436,4147.6923,4135.3846,4349.7436,4089.2308
4140.5128,4108.7179,4153.3333,4103.0769,4215.3846,4138.4615,4134.359,4125.1282,4149.7436,4140,4353.8462,4092.3077
4131.7949,4108.7179,4152.3077,4105.641,4210.2564,4136.9231,4135.8974,4129.7436,4146.6667,4136.9231,4367.1795,4088.2051
4145.641,4107.1795,4158.9744,4109.2308,4210.2564,4127.6923,4137.9487,4134.8718,4146.1538,4139.4872,4375.3846,4095.8974
4156.9231,4102.0513,4156.4103,4098.9744,4216.4103,4127.6923,4136.4103,4126.1538,4147.1795,4140,4356.9231,4094.359
4141.0256,4101.0256,4149.2308,4089.2308,4217.9487,4136.4103,4136.4103,4124.6154,4150.2564,4130.2564,4344.1026,4080
4129.7436,4102.5641,4152.3077,4090.7692,4221.5385,4137.4359,4140,4131.7949,4153.8462,4129.7436,4356.9231,4076.4103
4137.4359,4102.0513,4153.3333,4087.1795,4232.3077,4136.4103,4139.4872,4127.1795,4149.7436,4135.8974,4354.359,4080
4141.0256,4100,4149.2308,4081.0256,4230.2564,4137.4359,4133.3333,4120,4137.9487,4136.9231,4337.9487,4079.4872
4137.4359,4103.0769,4153.3333,4084.6154,4222.5641,4136.4103,4133.3333,4120.5128,4142.5641,4136.9231,4344.1026,4074.359
4137.4359,4103.0769,4155.3846,4083.5897,4219.4872,4135.3846,4140,4129.7436,4160,4135.3846,4344.1026,4073.3333
4136.4103,4100,4149.7436,4075.3846,4217.9487,4136.9231,4140.5128,4133.3333,4155.8974,4131.2821,4329.7436,4075.3846
4138.4615,4103.5897,4152.8205,4075.8974,4224.1026,4135.3846,4136.4103,4129.2308,4150.7692,4134.359,4331.2821,4076.4103
4142.5641,4104.1026,4156.4103,4077.4359,4230.2564,4135.3846,4135.3846,4130.7692,4149.2308,4143.5897,4329.2308,4076.4103
4138.4615,4104.1026,4151.7949,4072.8205,4224.6154,4140,4136.9231,4130.2564,4147.1795,4140,4322.0513,4071.7949
4133.8462,4109.2308,4148.2051,4070.7692,4214.8718,4141.5385,4138.9744,4123.5897,4159.4872,4130.2564,4337.9487,4068.7179
4138.4615,4109.2308,4152.8205,4069.7436,4212.3077,4137.4359,4138.9744,4126.6667,4162.5641,4134.359,4346.1538,4072.8205
4143.5897,4105.1282,4150.7692,4067.1795,4218.4615,4136.9231,4139.4872,4136.4103,4140,4138.4615,4322.0513,4071.2821
4131.7949,4102.5641,4139.4872,4058.4615,4219.4872,4140.5128,4139.4872,4128.7179,4131.7949,4128.2051,4301.5385,4055.8974
4123.5897,4106.6667,4143.0769,4051.2821,4209.2308,4139.4872,4138.4615,4117.4359,4146.6667,4116.9231,4305.1282,4055.3846
4133.3333,4109.7436,4151.2821,4052.8205,4207.1795,4136.9231,4139.4872,4130.7692,4146.1538,4121.5385,4307.1795,4064.6154
4135.8974,4104.6154,4142.0513,4050.7692,4209.2308,4136.9231,4135.8974,4137.4359,4140.5128,4127.6923,4301.5385,4057.4359
4121.5385,4102.0513,4131.2821,4042.0513,4203.5897,4136.9231,4131.7949,4121.0256,4146.6667,4117.4359,4295.8974,4045.641
4115.3846,4102.5641,4134.8718,4040,4203.5897,4138.4615,4135.8974,4112.8205,4154.359,4114.8718,4303.5897,4050.7692
4132.8205,4105.641,4146.6667,4047.6923,4208.7179,4141.0256,4141.0256,4125.641,4160.5128,4136.4103,4310.7692,4069.7436
4143.0769,4112.8205,4158.9744,4053.3333,4203.0769,4140,4141.5385,4135.8974,4164.1026,4145.1282,4306.1538,4069.7436
4130.7692,4110.2564,4152.8205,4044.6154,4195.8974,4136.4103,4134.359,4131.7949,4163.0769,4129.2308,4297.4359,4048.2051
4126.1538,4102.5641,4135.3846,4028.7179,4200,4134.359,4126.1538,4125.1282,4162.0513,4127.6923,4288.2051,4048.2051
4133.3333,4108.7179,4145.1282,4029.7436,4201.5385,4135.3846,4131.2821,4126.1538,4172.8205,4141.5385,4297.9487,4069.2308
4128.7179,4113.3333,4156.4103,4036.9231,4191.2821,4135.3846,4136.9231,4134.8718,4168.2051,4136.4103,4303.0769,4058.9744
4118.4615,4105.1282,4141.0256,4027.6923,4186.6667,4133.3333,4130.2564,4129.7436,4152.8205,4123.0769,4287.6923,4041.0256
4123.0769,4101.5385,4135.3846,4021.0256,4190.2564,4135.8974,4130.2564,4122.5641,4152.8205,4122.5641,4285.1282,4055.3846
4126.1538,4109.2308,4143.0769,4026.6667,4190.7692,4136.9231,4134.359,4129.2308,4156.9231,4120.5128,4295.8974,4056.4103
4126.1538,4110.2564,4140.5128,4029.7436,4191.2821,4134.359,4126.6667,4129.2308,4154.8718,4119.4872,4292.3077,4042.5641
4128.2051,4103.0769,4138.4615,4029.7436,4194.359,4136.9231,4123.5897,4122.5641,4152.8205,4123.5897,4275.8974,4046.1538
4119.4872,4103.5897,4142.5641,4025.1282,4181.5385,4131.7949,4131.7949,4126.1538,4156.9231,4117.4359,4274.8718,4042.5641
4117.4359,4107.1795,4137.4359,4011.2821,4167.6923,4126.1538,4129.7436,4121.5385,4156.4103,4110.7692,4276.9231,4034.8718
4122.0513,4107.6923,4133.8462,4009.7436,4184.1026,4140.5128,4130.2564,4117.9487,4154.359,4106.6667,4265.641,4035.8974
4112.8205,4103.5897,4139.4872,4014.359,4195.3846,4146.1538,4138.4615,4132.3077,4148.2051,4104.1026,4253.3333,4029.7436
4108.2051,4104.6154,4140,4005.1282,4173.3333,4127.1795,4132.3077,4136.4103,4150.7692,4111.7949,4258.9744,4030.2564
4123.0769,4108.7179,4138.4615,4005.1282,4162.5641,4117.4359,4123.0769,4126.1538,4163.5897,4120.5128,4276.9231,4046.6667
4131.7949,4106.6667,4141.0256,4017.4359,4178.4615,4126.6667,4123.5897,4123.0769,4164.6154,4116.9231,4269.7436,4050.7692
4119.4872,4105.641,4138.4615,4012.8205,4189.2308,4133.8462,4125.641,4125.1282,4155.3846,4105.1282,4243.5897,4036.9231
4118.4615,4110.2564,4135.3846,4003.5897,4187.6923,4136.9231,4128.7179,4124.1026,4154.359,4105.1282,4253.3333,4036.9231
4134.8718,4109.2308,4140,4011.7949,4187.6923,4141.0256,4132.3077,4123.5897,4164.1026,4119.4872,4278.4615,4053.8462
4132.8205,4103.0769,4141.0256,4012.3077,4180.5128,4136.9231,4128.2051,4125.1282,4158.9744,4120.5128,4268.2051,4050.2564
4120.5128,4102.0513,4131.2821,4000,4172.3077,4127.6923,4122.5641,4129.2308,4156.9231,4105.641,4258.4615,4032.3077
4125.1282,4106.1538,4134.8718,4001.5385,4180.5128,4129.2308,4126.1538,4135.3846,4165.641,4111.2821,4261.5385,4035.3846
4128.2051,4108.2051,4150.7692,4008.2051,4183.5897,4133.8462,4125.641,4127.6923,4156.9231,4127.6923,4249.2308,4049.7436
4121.5385,4104.1026,4148.2051,4001.5385,4171.2821,4126.1538,4119.4872,4115.8974,4152.8205,4123.5897,4252.3077,4052.8205
4128.2051,4101.5385,4136.9231,3996.9231,4166.6667,4121.0256,4122.0513,4122.5641,4161.0256,4119.4872,4267.1795,4051.2821
4132.8205,4105.641,4139.4872,3999.4872,4172.8205,4133.8462,4126.1538,4126.1538,4161.0256,4121.0256,4260.5128,4045.1282
4122.5641,4103.5897,4142.0513,3995.3846,4174.359,4141.5385,4125.1282,4121.0256,4148.2051,4111.7949,4249.2308,4033.8462
4121.0256,4098.4615,4138.9744,3994.8718,4171.7949,4135.3846,4126.6667,4125.641,4147.6923,4110.2564,4249.2308,4041.5385
4129.2308,4103.5897,4147.6923,4002.5641,4170.7692,4135.3846,4129.7436,4127.6923,4166.6667,4122.5641,4255.8974,4058.4615
4127.1795,4110.7692,4154.359,4001.5385,4169.7436,4136.4103,4130.7692,4125.1282,4172.3077,4128.2051,4258.4615,4051.7949
4122.5641,4104.6154,4145.641,3991.2821,4169.7436,4130.2564,4131.7949,4131.2821,4152.8205,4118.9744,4247.6923,4032.8205
4125.1282,4102.0513,4142.5641,3988.7179,4171.2821,4128.7179,4139.4872,4130.2564,4144.1026,4105.641,4244.1026,4030.2564
4124.6154,4110.2564,4146.1538,3992.8205,4168.2051,4138.4615,4149.7436,4121.5385,4153.3333,4103.0769,4253.3333,4038.4615
4121.5385,4104.1026,4144.1026,3988.2051,4151.2821,4136.9231,4149.2308,4126.1538,4150.7692,4109.7436,4244.6154,4036.4103
4120.5128,4096.9231,4137.9487,3979.4872,4137.4359,4123.5897,4140,4123.5897,4144.6154,4104.1026,4228.7179,4027.6923
4121.5385,4103.5897,4140,3982.5641,4147.6923,4123.0769,4138.4615,4121.5385,4153.3333,4097.4359,4231.2821,4023.0769
4127.6923,4104.1026,4149.7436,3989.7436,4153.8462,4132.3077,4145.1282,4134.359,4154.8718,4115.3846,4228.2051,4032.3077
4132.3077,4098.4615,4149.2308,3987.1795,4146.1538,4127.1795,4141.5385,4131.7949,4151.2821,4122.0513,4228.7179,4044.6154
4127.6923,4100,4144.1026,3982.5641,4148.7179,4118.9744,4137.4359,4123.0769,4151.2821,4108.7179,4231.7949,4040.5128
4117.9487,4102.0513,4150.2564,3981.5385,4153.3333,4127.6923,4143.5897,4130.7692,4151.2821,4109.2308,4224.1026,4032.3077
4114.359,4102.5641,4155.3846,3977.4359,4151.7949,4137.4359,4144.6154,4136.9231,4146.1538,4114.8718,4222.0513,4029.7436
4116.9231,4104.1026,4148.7179,3976.9231,4152.3077,4131.7949,4138.9744,4124.1026,4145.641,4105.641,4232.3077,4026.6667
4120,4103.5897,4150.2564,3983.0769,4145.1282,4121.5385,4140.5128,4118.9744,4150.2564,4109.2308,4225.641,4031.7949
4126.1538,4103.0769,4158.4615,3984.1026,4136.4103,4123.5897,4145.641,4128.7179,4148.7179,4122.5641,4216.4103,4042.0513
4125.641,4105.641,4151.7949,3981.0256,4150.2564,4132.8205,4144.1026,4129.7436,4142.5641,4117.9487,4227.1795,4035.8974
4113.8462,4103.5897,4142.5641,3976.9231,4161.0256,4138.9744,4144.6154,4129.2308,4129.7436,4121.5385,4215.8974,4031.7949
4109.2308,4102.5641,4146.6667,3971.7949,4146.6667,4138.4615,4151.2821,4132.3077,4135.8974,4122.0513,4204.6154,4036.9231
4124.1026,4110.7692,4157.4359,3976.9231,4144.1026,4130.2564,4155.8974,4133.3333,4160,4107.6923,4225.641,4034.8718
4134.359,4109.2308,4157.9487,3982.0513,4150.2564,4124.6154,4149.2308,4123.0769,4166.1538,4108.7179,4229.2308,4031.7949
4115.8974,4098.9744,4146.1538,3974.8718,4142.5641,4131.2821,4141.5385,4119.4872,4143.0769,4110.7692,4207.6923,4023.5897
4107.1795,4101.5385,4142.0513,3970.2564,4141.0256,4136.4103,4146.1538,4127.1795,4130.2564,4103.0769,4198.4615,4020
4124.1026,4106.6667,4151.2821,3973.8462,4146.6667,4129.2308,4146.6667,4124.1026,4147.1795,4114.8718,4205.641,4038.4615
4125.1282,4103.5897,4155.3846,3975.8974,4143.5897,4124.1026,4142.5641,4120.5128,4155.3846,4124.1026,4210.2564,4040.5128
4111.7949,4102.0513,4154.359,3974.8718,4139.4872,4126.1538,4141.5385,4121.5385,4146.6667,4119.4872,4211.7949,4025.1282
4116.9231,4105.641,4153.8462,3971.7949,4140,4124.6154,4142.0513,4124.6154,4133.3333,4127.6923,4204.6154,4027.6923
4124.6154,4106.6667,4148.7179,3968.2051,4142.5641,4125.641,4142.5641,4126.1538,4133.3333,4124.1026,4204.1026,4033.3333
4121.5385,4106.1538,4146.1538,3971.2821,4151.2821,4134.359,4145.1282,4123.5897,4155.3846,4113.3333,4225.641,4037.9487
4124.6154,4107.1795,4155.8974,3977.4359,4151.7949,4137.4359,4149.2308,4127.6923,4169.7436,4128.2051,4231.7949,4049.7436
4125.641,4106.1538,4158.4615,3975.8974,4137.9487,4137.9487,4148.7179,4130.7692,4152.3077,4137.4359,4218.4615,4045.641
4113.3333,4104.1026,4150.7692,3971.7949,4135.8974,4138.9744,4145.641,4126.1538,4137.4359,4120.5128,4207.6923,4031.2821
4107.1795,4104.1026,4150.7692,3970.7692,4140,4130.7692,4141.5385,4124.1026,4152.3077,4109.2308,4195.8974,4031.7949
4120.5128,4102.5641,4151.7949,3974.359,4136.9231,4126.6667,4140,4124.1026,4155.3846,4114.8718,4192.3077,4032.8205
4125.641,4106.1538,4144.6154,3975.3846,4147.6923,4137.9487,4141.5385,4122.0513,4138.9744,4121.0256,4195.3846,4026.6667
4113.8462,4108.2051,4142.5641,3971.2821,4154.8718,4140,4137.9487,4120.5128,4133.8462,4123.0769,4189.7436,4028.2051
4106.1538,4100.5128,4144.1026,3969.2308,4140.5128,4129.2308,4134.8718,4120,4144.1026,4109.2308,4182.0513,4022.5641
4112.8205,4099.4872,4141.0256,3967.6923,4142.5641,4133.3333,4138.4615,4122.0513,4154.359,4102.5641,4189.2308,4023.0769
4113.3333,4104.6154,4138.4615,3961.0256,4152.3077,4136.9231,4135.8974,4127.1795,4147.6923,4108.7179,4185.1282,4029.2308
4104.1026,4106.1538,4137.9487,3957.4359,4139.4872,4123.5897,4124.6154,4120,4130.2564,4108.2051,4164.1026,4022.5641
4107.6923,4107.6923,4136.9231,3960,4130.2564,4117.4359,4122.5641,4109.2308,4136.4103,4104.1026,4164.1026,4017.4359
4111.2821,4106.1538,4137.4359,3958.9744,4139.4872,4125.641,4132.8205,4117.9487,4145.1282,4105.641,4157.4359,4020
4105.641,4105.641,4142.0513,3961.5385,4142.5641,4129.2308,4140,4126.6667,4136.4103,4105.641,4123.5897,4021.0256
4110.7692,4105.641,4140,3968.7179,4137.4359,4123.5897,4134.359,4123.0769,4142.0513,4105.1282,4102.0513,4014.359
4117.9487,4104.1026,4137.9487,3969.2308,4132.8205,4120,4124.1026,4120.5128,4153.8462,4113.3333,4109.2308,4021.0256
4116.9231,4104.1026,4146.1538,3969.2308,4125.641,4120.5128,4125.641,4123.5897,4152.8205,4117.4359,4123.5897,4037.4359
4109.7436,4104.6154,4140.5128,3965.641,4122.5641,4123.0769,4132.3077,4121.5385,4144.6154,4110.7692,4121.0256,4024.6154
4104.6154,4100,4118.4615,3956.9231,4128.2051,4124.1026,4133.3333,4123.0769,4132.3077,4103.0769,4107.1795,4004.1026
4111.7949,4099.4872,4114.8718,3961.5385,4137.4359,4128.2051,4132.8205,4127.1795,4133.8462,4104.1026,4108.2051,4017.4359
4125.641,4109.7436,4132.3077,3975.3846,4142.5641,4130.2564,4138.4615,4125.641,4151.7949,4115.8974,4121.0256,4031.7949
4124.1026,4110.2564,4138.9744,3972.8205,4137.4359,4123.5897,4140,4122.0513,4154.359,4123.0769,4126.6667,4022.0513
4114.359,4100.5128,4129.2308,3958.9744,4136.4103,4122.5641,4131.2821,4120,4144.1026,4111.2821,4127.1795,4021.5385
4111.2821,4101.5385,4121.0256,3956.4103,4142.0513,4128.2051,4128.7179,4122.5641,4132.8205,4100,4110.2564,4020.5128
4108.2051,4104.6154,4126.6667,3965.641,4138.9744,4126.1538,4134.8718,4125.641,4128.2051,4115.3846,4090.2564,4011.7949
4114.359,4104.1026,4139.4872,3975.3846,4132.8205,4120.5128,4133.3333,4116.9231,4146.1538,4125.1282,4115.3846,4027.6923
4126.6667,4105.641,4140.5128,3974.8718,4134.359,4122.5641,4124.6154,4109.7436,4154.359,4106.1538,4134.359,4031.7949
4120,4104.1026,4131.7949,3963.0769,4138.9744,4123.5897,4123.0769,4119.4872,4135.3846,4097.4359,4110.7692,4010.2564
4103.0769,4098.9744,4124.1026,3958.9744,4137.4359,4120.5128,4129.7436,4126.1538,4127.1795,4107.6923,4100,4007.1795
4103.0769,4099.4872,4121.5385,3966.6667,4136.4103,4129.2308,4133.3333,4120.5128,4136.9231,4099.4872,4107.1795,4017.4359
4115.8974,4108.2051,4130.7692,3972.3077,4140.5128,4136.4103,4134.359,4122.0513,4139.4872,4089.7436,4112.8205,4017.9487
4118.4615,4109.7436,4134.8718,3967.1795,4139.4872,4125.1282,4129.2308,4127.6923,4132.8205,4101.5385,4111.7949,4012.3077
4113.8462,4101.5385,4125.641,3959.4872,4134.8718,4117.9487,4122.5641,4121.5385,4125.1282,4101.5385,4100.5128,4006.1538
4115.8974,4104.1026,4127.1795,3963.0769,4137.4359,4122.0513,4122.0513,4116.4103,4123.5897,4088.2051,4100,4010.2564
4130.2564,4112.8205,4139.4872,3974.359,4139.4872,4118.9744,4122.0513,4120.5128,4143.0769,4097.9487,4126.1538,4028.2051
4137.4359,4108.7179,4142.5641,3975.3846,4140.5128,4113.8462,4121.5385,4126.1538,4149.2308,4115.3846,4129.7436,4034.8718
4123.0769,4102.0513,4137.4359,3962.0513,4147.6923,4120.5128,4125.641,4125.641,4132.3077,4110.2564,4107.6923,4023.0769
4110.2564,4101.0256,4131.2821,3955.8974,4147.6923,4126.1538,4126.1538,4118.9744,4132.3077,4099.4872,4109.2308,4015.3846
4101.5385,4097.9487,4126.6667,3958.9744,4136.4103,4123.0769,4123.5897,4120,4132.8205,4093.3333,4104.6154,4001.5385
4096.4103,4096.9231,4131.2821,3956.9231,4133.8462,4121.0256,4127.6923,4124.6154,4126.6667,4092.3077,4085.1282,3992.8205
4113.3333,4103.0769,4138.9744,3957.9487,4143.0769,4125.1282,4132.8205,4124.1026,4133.8462,4101.0256,4087.6923,4013.8462
4127.6923,4108.7179,4138.9744,3968.2051,4145.641,4127.6923,4130.7692,4121.5385,4138.9744,4106.6667,4096.9231,4026.1538
4114.359,4107.1795,4137.4359,3974.359,4137.4359,4123.0769,4131.7949,4121.0256,4131.2821,4100.5128,4100.5128,4009.7436
4120.5128,4108.2051,4147.1795,3974.359,4137.4359,4119.4872,4138.9744,4122.0513,4122.5641,4103.5897,4103.0769,4013.3333
4146.1538,4110.2564,4152.8205,3975.3846,4141.5385,4121.0256,4136.9231,4123.5897,4132.8205,4112.8205,4103.5897,4031.2821
4134.8718,4105.1282,4144.1026,3973.3333,4140.5128,4122.0513,4126.6667,4121.5385,4141.0256,4110.2564,4094.8718,4026.1538
4115.3846,4100.5128,4136.9231,3970.2564,4138.9744,4121.5385,4126.1538,4122.0513,4135.8974,4102.5641,4089.7436,4015.8974
4125.641,4101.5385,4141.0256,3971.7949,4139.4872,4122.0513,4132.8205,4128.7179,4132.3077,4107.6923,4087.6923,4020.5128
4132.3077,4108.2051,4144.6154,3973.3333,4143.0769,4124.6154,4134.8718,4126.6667,4131.7949,4116.9231,4086.1538,4028.7179
4116.9231,4110.7692,4140,3966.6667,4144.1026,4123.0769,4133.3333,4122.5641,4123.0769,4107.1795,4086.1538,4018.4615
4109.7436,4104.1026,4136.4103,3962.0513,4128.7179,4109.7436,4131.7949,4120,4116.4103,4095.8974,4078.9744,4010.2564
4117.9487,4106.1538,4139.4872,3967.6923,4120.5128,4107.1795,4128.7179,4116.4103,4121.0256,4097.4359,4076.4103,4017.4359
4126.6667,4114.8718,4143.5897,3974.359,4143.5897,4121.5385,4129.7436,4124.6154,4125.1282,4099.4872,4086.1538,4019.4872
4131.7949,4110.7692,4147.1795,3974.359,4157.9487,4128.7179,4136.9231,4135.3846,4129.7436,4106.1538,4095.8974,4015.8974
4136.9231,4109.7436,4152.3077,3974.359,4144.6154,4121.5385,4139.4872,4131.2821,4138.9744,4118.9744,4101.5385,4025.1282
4135.8974,4112.3077,4154.359,3974.359,4132.3077,4114.359,4130.7692,4122.5641,4137.9487,4117.4359,4103.0769,4036.4103
4123.0769,4107.1795,4148.7179,3969.2308,4130.7692,4108.2051,4123.0769,4125.641,4131.2821,4107.6923,4088.2051,4026.6667
4126.6667,4105.641,4150.7692,3970.2564,4134.8718,4108.2051,4128.2051,4126.6667,4133.3333,4113.3333,4085.1282,4028.7179
4143.0769,4110.7692,4155.8974,3976.9231,4138.9744,4115.8974,4134.8718,4122.5641,4135.3846,4114.8718,4105.641,4036.4103
4138.9744,4105.641,4146.1538,3972.8205,4137.9487,4119.4872,4132.3077,4121.0256,4132.3077,4106.6667,4101.5385,4026.1538
4131.2821,4097.9487,4135.8974,3966.6667,4136.9231,4121.0256,4128.7179,4119.4872,4136.4103,4104.1026,4085.1282,4023.5897
4134.359,4111.7949,4145.1282,3972.3077,4133.8462,4119.4872,4131.2821,4128.2051,4137.9487,4105.641,4092.3077,4028.2051
4129.7436,4119.4872,4157.9487,3976.9231,4126.1538,4114.8718,4131.7949,4134.8718,4127.6923,4110.7692,4101.0256,4026.1538
4125.641,4107.1795,4154.8718,3973.8462,4132.3077,4118.4615,4130.7692,4130.2564,4124.6154,4114.359,4091.7949,4023.5897
4135.3846,4106.1538,4150.2564,3973.3333,4143.5897,4124.6154,4134.359,4133.3333,4132.3077,4120,4088.7179,4040.5128
4130.2564,4111.7949,4151.7949,3972.8205,4137.9487,4120,4132.3077,4136.9231,4134.8718,4122.5641,4092.8205,4043.5897
4121.0256,4107.1795,4150.7692,3972.3077,4135.3846,4113.3333,4127.6923,4127.1795,4135.3846,4118.4615,4093.3333,4026.1538
4133.8462,4102.0513,4151.7949,3976.9231,4137.9487,4118.9744,4125.1282,4123.0769,4137.4359,4120.5128,4097.4359,4032.3077
4138.9744,4106.6667,4150.2564,3980.5128,4128.7179,4120,4125.1282,4129.2308,4123.5897,4125.641,4083.5897,4037.9487
4133.8462,4108.7179,4144.1026,3980.5128,4120.5128,4108.7179,4123.0769,4127.1795,4110.2564,4117.9487,4070.7692,4028.2051
4140,4106.6667,4140,3980.5128,4121.0256,4107.6923,4121.0256,4119.4872,4125.641,4112.8205,4092.3077,4032.3077
4135.8974,4107.1795,4138.4615,3981.0256,4121.0256,4117.9487,4123.5897,4125.641,4141.0256,4118.9744,4095.3846,4031.7949
4128.2051,4109.7436,4142.5641,3984.1026,4122.0513,4115.3846,4123.5897,4133.3333,4133.8462,4122.5641,4075.8974,4018.4615
4142.0513,4113.3333,4154.8718,3990.7692,4125.641,4111.2821,4123.0769,4124.6154,4131.7949,4123.0769,4093.8462,4041.5385
4147.6923,4116.9231,4152.8205,3992.8205,4126.1538,4120.5128,4124.6154,4121.5385,4134.8718,4124.6154,4113.3333,4063.0769
4126.1538,4110.2564,4137.9487,3982.5641,4124.1026,4121.0256,4123.0769,4132.8205,4131.2821,4121.0256,4098.4615,4031.2821
4122.5641,4105.1282,4138.4615,3977.4359,4123.0769,4110.2564,4121.5385,4134.8718,4131.2821,4120.5128,4088.2051,4015.8974
4142.0513,4109.2308,4147.1795,3983.5897,4121.0256,4108.7179,4122.0513,4124.1026,4130.7692,4123.5897,4096.9231,4038.4615
4141.5385,4105.1282,4141.5385,3982.5641,4123.0769,4112.3077,4117.9487,4122.0513,4122.5641,4122.0513,4096.4103,4041.5385
4121.5385,4101.0256,4135.8974,3974.359,4124.6154,4109.7436,4113.3333,4124.1026,4121.5385,4118.9744,4081.0256,4030.7692
4115.3846,4105.641,4138.9744,3972.8205,4113.8462,4104.6154,4111.2821,4118.9744,4130.7692,4118.9744,4070.2564,4033.8462
4127.6923,4107.6923,4139.4872,3974.359,4108.7179,4103.5897,4110.2564,4116.4103,4136.4103,4117.4359,4073.8462,4035.3846
4138.4615,4108.2051,4140,3978.9744,4118.4615,4104.6154,4111.7949,4123.0769,4132.3077,4119.4872,4080.5128,4033.3333
4134.8718,4111.7949,4144.1026,3987.1795,4120,4106.6667,4114.359,4131.2821,4129.7436,4128.2051,4068.2051,4037.9487
4122.0513,4109.7436,4143.0769,3987.1795,4115.8974,4110.2564,4114.359,4127.6923,4126.6667,4120.5128,4057.4359,4027.1795
4124.1026,4103.0769,4136.9231,3985.1282,4113.3333,4110.7692,4116.4103,4120.5128,4124.1026,4110.7692,4064.1026,4022.5641
4133.8462,4105.1282,4140.5128,3991.2821,4110.7692,4106.6667,4123.0769,4123.5897,4125.641,4123.5897,4056.4103,4037.9487
4124.6154,4109.2308,4147.1795,3992.8205,4114.359,4107.6923,4123.5897,4125.1282,4130.7692,4127.1795,4049.7436,4036.9231
4115.8974,4108.2051,4140.5128,3987.6923,4124.6154,4117.9487,4121.0256,4121.5385,4126.1538,4108.7179,4061.0256,4017.4359
4129.2308,4109.7436,4135.8974,3988.7179,4126.6667,4122.5641,4121.5385,4123.0769,4117.9487,4110.2564,4065.1282,4027.6923
4143.5897,4110.2564,4146.1538,3992.3077,4122.0513,4113.3333,4118.9744,4124.6154,4129.2308,4129.2308,4061.0256,4053.8462
4143.5897,4111.2821,4153.8462,3990.7692,4121.5385,4104.6154,4118.9744,4127.1795,4148.2051,4128.2051,4071.7949,4051.7949
4141.0256,4112.8205,4154.8718,3989.2308,4121.5385,4108.7179,4122.5641,4138.4615,4147.1795,4126.1538,4078.9744,4047.6923
4129.7436,4105.1282,4149.7436,3989.2308,4118.9744,4117.9487,4122.0513,4133.3333,4131.7949,4127.1795,4066.6667,4046.6667
4126.1538,4104.6154,4146.6667,3990.7692,4120.5128,4120.5128,4121.5385,4119.4872,4134.359,4120.5128,4066.1538,4041.5385
4140.5128,4109.2308,4150.7692,3994.359,4123.0769,4117.4359,4123.5897,4127.1795,4148.7179,4121.5385,4078.9744,4048.2051
4134.8718,4105.1282,4146.6667,3991.2821,4118.4615,4114.359,4124.1026,4135.3846,4140.5128,4125.1282,4072.8205,4047.1795
4116.4103,4099.4872,4142.0513,3987.6923,4116.9231,4114.359,4121.5385,4126.6667,4132.3077,4123.0769,4051.2821,4035.3846
4118.4615,4105.641,4146.1538,3992.3077,4121.0256,4117.9487,4120.5128,4121.5385,4139.4872,4124.6154,4052.8205,4037.4359
4125.641,4112.8205,4147.6923,3994.359,4117.9487,4120,4122.0513,4125.641,4137.9487,4126.6667,4066.1538,4050.2564
4127.6923,4106.6667,4147.6923,3989.7436,4110.7692,4120,4122.5641,4125.1282,4134.359,4120.5128,4065.641,4045.641
4136.4103,4103.5897,4153.3333,3990.2564,4109.7436,4118.4615,4120.5128,4125.1282,4139.4872,4124.6154,4058.9744,4046.1538
4136.4103,4107.1795,4148.2051,3991.7949,4114.359,4120.5128,4119.4872,4127.1795,4136.9231,4129.7436,4057.9487,4052.3077
4123.0769,4102.5641,4136.4103,3986.6667,4116.4103,4123.0769,4121.0256,4124.1026,4129.7436,4120,4054.359,4036.9231
4117.9487,4103.0769,4140,3986.1538,4113.3333,4120.5128,4121.0256,4126.1538,4132.8205,4116.4103,4046.6667,4022.5641
4119.4872,4108.7179,4149.2308,3989.2308,4113.8462,4120,4122.5641,4133.3333,4138.4615,4121.0256,4044.6154,4030.2564
4122.0513,4104.6154,4150.7692,3989.7436,4121.0256,4123.0769,4126.6667,4131.2821,4140.5128,4122.0513,4047.1795,4041.0256
4125.1282,4101.5385,4146.1538,3988.7179,4120,4120,4127.6923,4123.5897,4134.8718,4121.5385,4055.3846,4038.9744
4115.8974,4101.0256,4136.4103,3985.641,4108.2051,4118.9744,4121.0256,4118.4615,4120,4115.3846,4044.6154,4024.6154
4104.1026,4101.0256,4133.8462,3983.5897,4111.7949,4120.5128,4115.3846,4119.4872,4120,4103.0769,4027.1795,4010.7692
4117.9487,4106.6667,4146.1538,3990.7692,4121.0256,4112.8205,4118.9744,4131.2821,4135.8974,4114.8718,4044.6154,4028.7179
4133.3333,4108.2051,4154.8718,3995.8974,4115.8974,4105.1282,4123.5897,4137.4359,4142.0513,4137.9487,4063.5897,4050.2564
4125.641,4103.0769,4148.2051,3991.7949,4114.359,4114.359,4123.5897,4128.7179,4135.8974,4133.3333,4055.8974,4042.0513
4116.4103,4104.1026,4142.0513,3992.3077,4123.0769,4127.6923,4125.1282,4125.641,4132.8205,4120.5128,4058.9744,4033.8462
4122.0513,4106.1538,4142.5641,3995.3846,4126.1538,4125.1282,4127.1795,4128.2051,4136.9231,4123.5897,4073.3333,4042.5641
4127.1795,4102.5641,4140,3993.3333,4121.0256,4117.4359,4123.5897,4128.7179,4138.9744,4126.6667,4061.5385,4047.6923
4116.9231,4098.9744,4136.4103,3990.7692,4116.9231,4117.9487,4121.0256,4128.7179,4129.7436,4116.4103,4044.1026,4030.2564
4102.0513,4099.4872,4137.9487,3991.2821,4112.8205,4116.9231,4122.5641,4127.6923,4122.0513,4107.6923,4045.1282,4020
4101.5385,4101.0256,4138.4615,3990.2564,4110.2564,4113.3333,4120.5128,4122.5641,4130.2564,4109.7436,4044.1026,4026.1538
4112.8205,4101.5385,4140,3988.2051,4113.8462,4119.4872,4122.0513,4123.0769,4138.9744,4112.3077,4053.3333,4028.2051
4115.3846,4097.9487,4136.4103,3988.7179,4113.8462,4125.1282,4125.641,4130.7692,4136.4103,4107.6923,4069.2308,4022.0513
4118.9744,4101.0256,4136.9231,3990.7692,4109.2308,4121.0256,4124.1026,4133.3333,4146.1538,4122.0513,4069.2308,4039.4872
4129.2308,4111.7949,4149.7436,4000,4107.6923,4117.9487,4123.0769,4128.2051,4140,4143.0769,4079.4872,4066.1538
4125.641,4109.2308,4149.2308,4006.1538,4107.1795,4120.5128,4123.0769,4120,4088.7179,4135.8974,4094.8718,4061.5385
4108.2051,4096.9231,4134.8718,3997.4359,4108.7179,4118.9744,4122.0513,4118.9744,4038.4615,4121.0256,4072.3077,4046.1538
4100,4097.4359,4131.2821,3989.7436,4109.2308,4119.4872,4123.0769,4128.7179,4029.7436,4113.3333,4049.2308,4027.1795
4114.359,4106.1538,4137.4359,3997.4359,4100.5128,4120.5128,4124.1026,4134.8718,4038.4615,4114.359,4070.7692,4026.1538
4129.7436,4111.2821,4143.0769,4007.6923,4093.8462,4114.359,4122.0513,4128.7179,4038.4615,4117.9487,4088.2051,4047.1795
4123.5897,4107.6923,4140.5128,4003.0769,4102.5641,4112.3077,4120,4120,4040.5128,4111.7949,4073.3333,4042.0513
4114.359,4103.5897,4130.7692,3995.3846,4111.7949,4120.5128,4118.9744,4122.0513,4044.1026,4106.1538,4070.7692,4029.7436
4117.4359,4103.0769,4128.7179,3996.9231,4107.6923,4123.0769,4118.4615,4126.6667,4052.8205,4117.9487,4079.4872,4045.1282
4124.6154,4105.641,4137.4359,3999.4872,4105.1282,4118.4615,4121.0256,4120,4068.2051,4129.7436,4076.9231,4061.5385
4125.1282,4109.2308,4140,3998.9744,4110.2564,4120.5128,4122.5641,4112.8205,4072.3077,4126.6667,4076.9231,4062.0513
4123.0769,4105.641,4136.4103,4000,4108.2051,4123.5897,4121.5385,4119.4872,4064.1026,4125.641,4078.4615,4056.9231
4117.9487,4102.5641,4137.4359,4003.0769,4103.5897,4120.5128,4117.9487,4126.6667,4055.8974,4125.641,4069.7436,4047.6923
4120,4112.3077,4142.0513,4005.1282,4107.1795,4121.5385,4119.4872,4127.6923,4055.8974,4124.6154,4068.7179,4048.7179
4129.7436,4114.8718,4145.641,4006.1538,4112.3077,4124.6154,4123.5897,4128.2051,4068.2051,4129.7436,4084.6154,4066.1538
4128.7179,4108.2051,4143.0769,4004.1026,4110.7692,4122.5641,4125.1282,4128.7179,4069.7436,4126.6667,4081.5385,4059.4872
4120.5128,4106.1538,4135.8974,4000,4108.2051,4120,4123.5897,4124.6154,4057.4359,4120,4063.5897,4048.7179
4118.9744,4109.2308,4136.4103,4001.0256,4108.2051,4121.5385,4124.1026,4123.0769,4063.5897,4127.6923,4074.359,4065.1282
4124.1026,4112.3077,4138.9744,4002.5641,4107.6923,4122.5641,4125.641,4127.6923,4069.2308,4133.3333,4083.5897,4067.1795
4127.1795,4110.7692,4136.9231,4002.0513,4107.1795,4120.5128,4122.0513,4125.1282,4058.4615,4125.641,4069.2308,4055.8974
4122.5641,4109.2308,4135.3846,4002.0513,4110.2564,4120.5128,4121.5385,4122.5641,4062.5641,4119.4872,4061.0256,4048.7179
4120,4111.2821,4136.4103,4004.1026,4110.7692,4123.0769,4124.6154,4132.8205,4072.3077,4128.7179,4055.8974,4049.7436
4124.1026,4110.7692,4136.9231,4008.2051,4105.641,4125.1282,4124.6154,4134.8718,4066.6667,4130.2564,4051.7949,4053.3333
4121.0256,4104.6154,4133.8462,4009.2308,4102.5641,4128.2051,4125.641,4125.641,4066.6667,4116.9231,4054.8718,4045.641
4115.3846,4101.5385,4134.359,4003.5897,4105.1282,4129.7436,4133.8462,4131.7949,4073.3333,4117.9487,4047.1795,4038.4615
4118.4615,4109.7436,4135.3846,4003.5897,4109.2308,4126.6667,4135.8974,4143.0769,4066.6667,4124.1026,4032.8205,4033.8462
4123.5897,4113.8462,4130.2564,4010.2564,4108.7179,4123.0769,4125.1282,4128.2051,4065.1282,4117.9487,4042.5641,4043.0769
4125.1282,4110.2564,4130.2564,4012.8205,4108.7179,4122.0513,4118.4615,4115.8974,4071.7949,4115.8974,4055.3846,4060.5128
4125.1282,4112.8205,4136.4103,4012.3077,4111.2821,4123.0769,4121.0256,4125.1282,4068.2051,4125.1282,4042.0513,4054.8718
4122.0513,4116.4103,4137.9487,4013.8462,4109.2308,4124.1026,4123.0769,4124.6154,4066.6667,4125.641,4036.4103,4040.5128
4120.5128,4112.3077,4136.9231,4013.3333,4106.1538,4119.4872,4119.4872,4120,4066.6667,4122.5641,4040.5128,4052.3077
4118.4615,4106.1538,4128.7179,4019.4872,4108.7179,4120,4111.2821,4124.1026,4033.8462,4124.6154,4050.2564,4045.1282
4126.6667,4104.6154,4123.5897,4017.9487,4108.7179,4118.9744,4107.1795,4122.5641,4032.8205,4125.641,4045.1282,4058.4615
4127.1795,4107.1795,4122.5641,4016.9231,4107.1795,4121.5385,4110.7692,4121.5385,4029.2308,4127.6923,4042.0513,4055.3846
4113.8462,4108.2051,4121.0256,4018.9744,4107.1795,4123.0769,4111.2821,4118.9744,4023.5897,4114.359,4037.9487,4033.8462
4114.8718,4107.1795,4124.1026,4023.5897,4109.7436,4123.0769,4109.7436,4120,4023.5897,4115.3846,4032.8205,4046.6667
4126.6667,4109.7436,4128.2051,4028.2051,4111.2821,4123.5897,4114.359,4129.7436,4025.641,4126.6667,4035.3846,4055.3846
4128.2051,4113.8462,4127.1795,4031.2821,4109.2308,4124.1026,4121.0256,4132.3077,4028.7179,4125.1282,4040.5128,4049.2308
4124.1026,4113.8462,4123.0769,4028.7179,4108.7179,4125.641,4122.0513,4127.6923,4028.7179,4120.5128,4034.359,4057.9487
4122.5641,4111.2821,4120,4026.1538,4111.2821,4128.2051,4119.4872,4133.3333,4025.641,4124.6154,4037.9487,4058.4615
4121.0256,4113.3333,4124.1026,4032.3077,4114.359,4128.7179,4121.0256,4138.9744,4030.2564,4127.1795,4053.8462,4052.3077
4122.0513,4110.2564,4125.1282,4031.7949,4111.7949,4127.1795,4114.359,4124.6154,4034.359,4124.1026,4056.4103,4066.1538
4121.0256,4105.1282,4114.8718,4021.5385,4104.6154,4123.5897,4105.641,4118.9744,4022.5641,4117.4359,4038.4615,4063.5897
4120.5128,4113.8462,4115.3846,4027.1795,4110.2564,4120.5128,4112.3077,4131.7949,4019.4872,4116.9231,4037.4359,4044.6154
4129.7436,4116.9231,4127.1795,4042.5641,4118.9744,4121.5385,4122.0513,4131.7949,4038.9744,4124.1026,4056.9231,4054.359
4135.8974,4109.2308,4126.6667,4040,4114.8718,4126.6667,4123.0769,4126.6667,4041.0256,4124.1026,4044.6154,4063.0769
4121.0256,4109.7436,4117.4359,4026.6667,4108.7179,4129.2308,4121.5385,4129.7436,4017.4359,4112.3077,4010.7692,4044.1026
4108.7179,4113.8462,4117.4359,4024.1026,4107.6923,4126.1538,4122.0513,4124.1026,4013.8462,4107.6923,4007.1795,4034.359
4118.9744,4115.3846,4122.5641,4032.8205,4109.2308,4124.1026,4123.5897,4124.1026,4032.3077,4119.4872,4029.2308,4045.641
4121.0256,4112.8205,4121.5385,4037.9487,4108.7179,4131.2821,4124.1026,4130.2564,4034.8718,4127.6923,4030.2564,4049.7436
4118.4615,4110.2564,4115.8974,4034.8718,4109.2308,4134.8718,4119.4872,4124.6154,4026.1538,4117.9487,4018.4615,4051.2821
4134.359,4111.2821,4119.4872,4040,4112.3077,4126.1538,4117.9487,4126.1538,4041.0256,4124.6154,4032.3077,4073.8462
4143.0769,4113.8462,4128.7179,4049.2308,4115.8974,4120,4123.0769,4135.8974,4051.2821,4140.5128,4049.7436,4081.0256
4125.1282,4116.9231,4126.1538,4046.6667,4115.3846,4123.0769,4123.5897,4134.359,4032.8205,4131.2821,4031.7949,4057.9487
4109.2308,4112.8205,4118.4615,4043.0769,4118.9744,4133.8462,4122.0513,4131.2821,4028.2051,4117.9487,4008.7179,4044.6154
4116.9231,4107.1795,4122.5641,4047.6923,4121.0256,4136.9231,4125.1282,4138.4615,4044.1026,4123.0769,4027.1795,4055.8974
4126.6667,4106.1538,4127.6923,4046.6667,4110.7692,4124.6154,4126.1538,4138.4615,4045.1282,4130.7692,4038.4615,4070.7692
4114.8718,4100.5128,4113.8462,4035.8974,4107.1795,4124.1026,4122.5641,4128.2051,4034.359,4121.5385,4010.2564,4058.9744
4099.4872,4099.4872,4105.1282,4030.7692,4111.2821,4136.9231,4124.1026,4125.641,4029.2308,4111.7949,4004.6154,4035.3846
4109.2308,4107.6923,4117.9487,4037.9487,4106.6667,4131.2821,4123.5897,4124.6154,4032.3077,4118.4615,4031.2821,4048.7179
4116.9231,4111.2821,4126.6667,4044.1026,4105.641,4117.4359,4117.4359,4125.1282,4037.4359,4126.6667,4036.9231,4073.3333
4109.2308,4106.6667,4121.5385,4044.6154,4107.6923,4118.4615,4115.8974,4131.2821,4041.0256,4125.641,4028.2051,4063.0769
4111.7949,4105.1282,4117.9487,4042.0513,4106.1538,4124.1026,4121.5385,4129.7436,4036.4103,4123.0769,4028.7179,4048.7179
4110.7692,4104.1026,4117.9487,4040.5128,4108.7179,4124.1026,4122.0513,4124.1026,4028.2051,4118.4615,4023.0769,4055.3846
4104.6154,4103.5897,4116.9231,4042.5641,4107.6923,4122.5641,4117.9487,4126.6667,4031.7949,4114.359,4020.5128,4051.2821
4115.8974,4108.2051,4122.0513,4049.7436,4102.5641,4118.4615,4119.4872,4130.2564,4041.0256,4120.5128,4029.7436,4052.3077
4123.0769,4109.7436,4123.5897,4051.2821,4110.2564,4122.5641,4126.1538,4127.1795,4041.5385,4127.6923,4025.1282,4066.1538
4108.2051,4106.6667,4118.4615,4047.6923,4116.4103,4129.2308,4125.1282,4126.6667,4033.3333,4122.5641,4017.9487,4055.8974
4101.0256,4109.2308,4118.9744,4049.2308,4110.2564,4126.1538,4121.0256,4127.6923,4029.7436,4116.4103,4024.6154,4042.0513
4116.9231,4112.8205,4123.0769,4055.3846,4112.3077,4126.1538,4126.1538,4129.2308,4041.0256,4121.0256,4032.8205,4062.0513
4128.2051,4112.3077,4123.0769,4060,4117.4359,4133.8462,4132.3077,4140,4056.4103,4132.3077,4033.8462,4081.5385
4121.5385,4114.8718,4124.1026,4060,4118.9744,4140.5128,4130.2564,4137.4359,4058.9744,4131.2821,4040,4068.2051
4116.9231,4113.3333,4126.6667,4061.5385,4117.4359,4137.4359,4126.6667,4123.5897,4051.2821,4125.641,4040.5128,4066.1538
4122.5641,4110.2564,4124.1026,4061.5385,4112.8205,4128.7179,4124.6154,4124.1026,4048.7179,4130.2564,4031.7949,4080
4121.5385,4112.3077,4122.5641,4056.4103,4110.7692,4120.5128,4120.5128,4125.641,4052.8205,4132.3077,4038.9744,4074.359
4111.2821,4108.7179,4119.4872,4048.7179,4112.3077,4121.0256,4118.9744,4122.0513,4051.2821,4127.1795,4031.7949,4061.5385
4106.1538,4104.6154,4109.2308,4044.1026,4116.4103,4133.3333,4122.5641,4125.1282,4046.6667,4117.4359,4007.6923,4056.4103
4104.6154,4101.0256,4106.1538,4043.0769,4111.7949,4136.4103,4124.1026,4126.1538,4050.7692,4110.2564,4017.9487,4049.2308
4104.6154,4104.6154,4118.4615,4046.6667,4107.6923,4128.7179,4124.1026,4125.1282,4049.2308,4117.4359,4033.8462,4046.6667
4110.2564,4109.2308,4126.6667,4051.2821,4112.8205,4131.2821,4122.5641,4126.6667,4048.2051,4128.2051,4023.5897,4065.1282
4113.3333,4104.1026,4122.5641,4049.2308,4116.4103,4134.359,4121.0256,4125.1282,4060,4123.5897,4022.5641,4079.4872
4107.6923,4104.6154,4120.5128,4050.2564,4111.7949,4126.1538,4124.1026,4123.5897,4064.1026,4117.9487,4037.4359,4067.6923
4106.1538,4110.2564,4123.0769,4055.8974,4106.6667,4126.6667,4126.1538,4127.1795,4058.9744,4124.6154,4037.9487,4057.4359
4114.359,4111.2821,4123.5897,4054.8718,4111.7949,4137.9487,4125.1282,4124.6154,4056.9231,4124.1026,4029.7436,4072.3077
4115.3846,4105.641,4120.5128,4055.3846,4115.8974,4136.9231,4129.2308,4125.641,4057.9487,4119.4872,4026.6667,4074.8718
4106.1538,4103.0769,4113.8462,4058.9744,4114.359,4135.8974,4134.359,4131.2821,4055.3846,4120.5128,4030.7692,4056.9231
4106.6667,4106.1538,4114.8718,4055.8974,4110.2564,4137.4359,4131.2821,4127.6923,4054.8718,4116.9231,4038.9744,4057.4359
4110.2564,4109.7436,4120,4055.3846,4106.6667,4128.2051,4125.1282,4118.9744,4064.6154,4112.8205,4038.9744,4069.2308
4106.1538,4113.8462,4124.1026,4060.5128,4110.2564,4128.2051,4125.641,4121.5385,4077.4359,4119.4872,4036.9231,4071.7949
4102.0513,4111.7949,4120,4055.3846,4109.2308,4138.4615,4126.6667,4128.7179,4071.7949,4123.0769,4034.359,4073.8462
4114.359,4109.2308,4118.9744,4056.4103,4104.1026,4134.359,4125.1282,4131.2821,4058.4615,4125.641,4032.3077,4077.4359
4131.7949,4117.4359,4134.8718,4074.8718,4108.2051,4126.6667,4130.2564,4130.2564,4066.6667,4136.9231,4043.0769,4082.0513
4132.8205,4116.9231,4141.5385,4075.8974,4113.8462,4130.7692,4132.8205,4124.6154,4083.5897,4140,4050.2564,4088.2051
4121.0256,4107.6923,4128.7179,4062.0513,4113.3333,4129.2308,4125.641,4122.0513,4081.5385,4129.2308,4044.6154,4080
4116.4103,4109.7436,4122.0513,4063.5897,4115.3846,4126.6667,4122.5641,4122.5641,4067.1795,4125.1282,4039.4872,4071.2821
4123.0769,4114.8718,4127.1795,4069.2308,4120.5128,4136.9231,4130.2564,4123.0769,4072.8205,4132.8205,4040.5128,4085.641
4122.0513,4110.2564,4123.0769,4063.5897,4115.3846,4140,4131.7949,4122.5641,4086.6667,4131.7949,4042.0513,4082.5641
4109.7436,4105.641,4117.4359,4057.4359,4105.1282,4127.6923,4124.1026,4125.641,4077.9487,4123.5897,4038.4615,4064.6154
4104.6154,4110.7692,4121.5385,4059.4872,4103.0769,4124.1026,4121.5385,4130.2564,4070.2564,4126.6667,4040.5128,4076.4103
4114.8718,4114.359,4126.1538,4066.6667,4112.3077,4133.3333,4130.2564,4134.359,4084.6154,4137.4359,4054.359,4095.3846
4126.1538,4109.2308,4124.1026,4071.2821,4117.9487,4140.5128,4136.4103,4132.8205,4092.3077,4140,4054.359,4091.7949
4119.4872,4108.7179,4120,4067.6923,4117.4359,4139.4872,4133.3333,4126.6667,4081.0256,4129.2308,4040,4081.5385
4116.9231,4114.8718,4125.641,4068.7179,4115.8974,4135.8974,4133.3333,4132.8205,4081.0256,4132.8205,4040,4088.7179
4126.1538,4111.2821,4132.3077,4070.7692,4114.8718,4135.8974,4135.8974,4136.9231,4088.2051,4142.5641,4040.5128,4093.8462
4118.9744,4103.0769,4124.6154,4066.1538,4112.3077,4137.9487,4130.7692,4126.6667,4087.1795,4132.8205,4035.3846,4073.8462
4110.7692,4104.6154,4120.5128,4069.7436,4108.7179,4135.8974,4124.1026,4119.4872,4082.0513,4125.1282,4036.9231,4070.7692
4116.4103,4111.2821,4125.641,4077.9487,4106.6667,4126.1538,4131.2821,4128.7179,4083.0769,4136.4103,4030.2564,4090.2564
4120,4109.2308,4129.2308,4076.9231,4104.6154,4125.641,4137.9487,4133.3333,4090.2564,4139.4872,4030.2564,4088.2051
4119.4872,4107.6923,4133.3333,4076.4103,4107.1795,4131.2821,4129.7436,4122.5641,4091.2821,4123.5897,4039.4872,4078.4615
4117.4359,4109.2308,4131.7949,4077.9487,4111.2821,4130.7692,4125.641,4124.1026,4084.1026,4121.0256,4027.1795,4078.9744
4113.8462,4105.641,4122.5641,4074.8718,4110.2564,4130.7692,4130.2564,4130.7692,4075.8974,4126.6667,4010.2564,4072.8205
4120.5128,4108.2051,4129.2308,4076.9231,4109.2308,4138.4615,4134.359,4130.7692,4080.5128,4121.5385,4024.1026,4075.3846
4132.3077,4111.2821,4142.5641,4080.5128,4109.2308,4136.9231,4133.3333,4135.3846,4091.2821,4130.2564,4041.5385,4094.8718
4120,4102.0513,4128.7179,4071.7949,4108.2051,4129.2308,4131.2821,4134.8718,4088.2051,4135.8974,4030.2564,4082.5641
4110.2564,4102.5641,4117.4359,4066.6667,4110.2564,4134.8718,4132.3077,4126.1538,4088.7179,4122.5641,4023.5897,4073.3333
4120.5128,4111.2821,4129.7436,4074.8718,4112.8205,4142.5641,4132.3077,4128.7179,4097.9487,4128.2051,4041.0256,4096.9231
4122.5641,4110.7692,4131.7949,4074.8718,4107.6923,4135.3846,4127.1795,4136.4103,4092.8205,4141.0256,4051.2821,4090.7692
4118.9744,4103.0769,4125.1282,4068.2051,4102.0513,4124.6154,4125.1282,4136.4103,4089.7436,4133.8462,4045.641,4068.2051
4125.641,4103.5897,4134.359,4072.3077,4103.0769,4127.6923,4131.2821,4138.4615,4096.4103,4135.8974,4044.6154,4083.5897
4121.0256,4106.6667,4137.4359,4078.4615,4112.3077,4136.9231,4131.2821,4132.3077,4090.2564,4142.0513,4039.4872,4093.3333
4109.2308,4103.0769,4125.1282,4079.4872,4120.5128,4138.9744,4123.0769,4114.359,4087.1795,4124.6154,4034.8718,4073.3333
4120,4105.641,4128.7179,4082.5641,4112.8205,4135.8974,4126.1538,4126.1538,4094.8718,4124.1026,4036.9231,4074.8718
4130.7692,4107.6923,4140,4087.6923,4105.641,4133.3333,4132.3077,4140,4094.359,4138.4615,4030.2564,4085.1282
4122.5641,4105.641,4137.4359,4089.2308,4117.9487,4139.4872,4133.3333,4125.641,4090.2564,4131.2821,4026.1538,4077.9487
4118.9744,4107.1795,4131.7949,4086.6667,4124.1026,4149.2308,4139.4872,4126.1538,4090.7692,4122.5641,4033.3333,4075.3846
4113.8462,4105.641,4123.5897,4077.9487,4102.0513,4146.1538,4138.4615,4136.4103,4093.8462,4123.5897,4034.8718,4075.3846
4103.0769,4102.5641,4120,4073.8462,4092.3077,4133.8462,4128.7179,4130.2564,4092.8205,4124.6154,4028.2051,4072.3077
4109.7436,4107.1795,4133.3333,4083.0769,4106.6667,4135.8974,4130.7692,4131.2821,4097.9487,4134.8718,4032.8205,4079.4872
4125.641,4111.7949,4143.0769,4091.2821,4111.2821,4142.5641,4142.0513,4142.0513,4115.3846,4146.1538,4046.1538,4086.6667
4126.6667,4106.6667,4138.9744,4092.8205,4111.7949,4145.641,4144.6154,4134.8718,4113.8462,4137.9487,4045.641,4082.0513
4116.9231,4101.0256,4135.3846,4086.1538,4116.4103,4152.3077,4136.9231,4127.1795,4090.2564,4126.1538,4027.1795,4076.9231
4106.6667,4100,4128.7179,4074.8718,4113.3333,4149.2308,4132.8205,4130.7692,4083.5897,4122.0513,4009.7436,4067.6923
4107.1795,4100.5128,4118.9744,4076.9231,4104.1026,4135.3846,4131.7949,4126.6667,4092.8205,4114.8718,4012.3077,4056.4103
4109.2308,4101.0256,4125.641,4087.6923,4104.1026,4133.8462,4135.3846,4127.6923,4093.8462,4114.8718,4020,4056.4103
4108.2051,4104.6154,4136.9231,4087.6923,4108.2051,4138.9744,4142.0513,4129.7436,4101.0256,4128.7179,4021.0256,4068.2051
4108.2051,4103.0769,4128.2051,4075.3846,4106.1538,4137.4359,4133.8462,4125.641,4102.5641,4131.2821,4015.3846,4068.7179
4103.0769,4096.4103,4117.4359,4070.7692,4104.6154,4134.359,4123.0769,4130.2564,4089.7436,4117.4359,4004.6154,4054.8718
4109.2308,4101.0256,4130.2564,4076.9231,4105.1282,4134.359,4130.7692,4143.0769,4096.9231,4127.1795,4008.2051,4066.1538
4120.5128,4104.1026,4143.5897,4081.0256,4107.1795,4135.3846,4137.4359,4141.5385,4114.8718,4146.1538,4011.2821,4083.5897
4106.6667,4100,4133.8462,4077.4359,4107.6923,4138.9744,4131.2821,4131.2821,4106.6667,4134.8718,3976.9231,4061.0256
4094.359,4100.5128,4124.6154,4073.8462,4106.1538,4140,4132.3077,4133.8462,4093.3333,4122.5641,3934.8718,4042.0513
4106.1538,4102.5641,4124.1026,4076.9231,4106.1538,4135.8974,4134.8718,4130.7692,4097.9487,4124.1026,3923.5897,4048.2051
4107.6923,4101.5385,4118.4615,4077.4359,4109.2308,4133.8462,4129.2308,4122.5641,4097.9487,4112.3077,3913.8462,4035.8974
4096.4103,4100.5128,4116.4103,4074.359,4107.6923,4135.8974,4129.2308,4130.7692,4096.9231,4102.5641,3891.7949,4017.4359
4093.8462,4103.5897,4120,4074.8718,4100.5128,4138.4615,4129.2308,4135.3846,4101.5385,4109.2308,3881.5385,4018.9744
4093.3333,4102.5641,4112.8205,4077.9487,4098.9744,4135.8974,4121.5385,4129.7436,4094.8718,4107.1795,3872.3077,4015.3846
4089.2308,4098.4615,4104.1026,4074.359,4102.0513,4133.3333,4123.0769,4130.7692,4088.7179,4100,3858.4615,4004.1026
4088.7179,4101.0256,4113.3333,4072.3077,4105.641,4135.3846,4132.8205,4136.4103,4095.3846,4108.2051,3856.9231,4007.6923
4100,4108.2051,4124.6154,4081.5385,4110.7692,4135.8974,4134.359,4128.7179,4104.6154,4114.359,3860,4015.8974
4105.1282,4110.2564,4122.5641,4090.2564,4114.8718,4137.4359,4131.2821,4124.6154,4097.4359,4106.1538,3846.6667,4010.2564
4090.2564,4103.5897,4112.3077,4084.6154,4113.3333,4139.4872,4128.2051,4131.7949,4090.7692,4098.4615,3827.6923,3995.8974
4085.641,4102.5641,4105.641,4077.4359,4108.7179,4134.359,4121.5385,4125.1282,4098.4615,4096.9231,3827.6923,3989.2308
4098.9744,4107.6923,4109.2308,4083.5897,4107.6923,4125.1282,4115.8974,4117.9487,4098.9744,4098.9744,3829.7436,3994.359
4104.6154,4106.6667,4117.9487,4092.8205,4105.1282,4121.0256,4116.4103,4126.1538,4095.8974,4108.2051,3816.9231,3995.3846
4098.9744,4105.641,4122.0513,4093.3333,4108.2051,4127.6923,4121.5385,4131.2821,4102.5641,4106.6667,3811.7949,3988.7179
4096.4103,4106.6667,4116.4103,4088.2051,4108.2051,4131.7949,4121.0256,4124.6154,4103.5897,4093.8462,3814.359,3992.3077
4101.0256,4104.6154,4113.3333,4087.1795,4096.4103,4127.1795,4118.9744,4127.6923,4093.3333,4096.9231,3807.6923,4005.641
4108.7179,4105.641,4116.4103,4092.3077,4098.9744,4127.6923,4122.5641,4140.5128,4096.9231,4108.7179,3805.1282,4006.1538
4106.6667,4108.2051,4114.8718,4092.8205,4119.4872,4137.9487,4127.1795,4136.4103,4113.3333,4105.1282,3817.9487,3995.8974
4097.4359,4108.2051,4109.7436,4091.2821,4122.5641,4140.5128,4127.6923,4126.6667,4108.2051,4092.3077,3818.9744,3992.8205
4095.8974,4106.1538,4108.2051,4089.7436,4107.1795,4133.8462,4124.6154,4128.2051,4095.8974,4091.7949,3811.7949,3993.3333
4092.3077,4105.641,4106.1538,4085.1282,4099.4872,4137.9487,4122.5641,4129.7436,4097.4359,4094.359,3803.5897,3983.5897
4088.7179,4107.6923,4102.5641,4080.5128,4098.4615,4140.5128,4122.5641,4122.5641,4100,4085.641,3789.7436,3969.7436
4088.2051,4105.1282,4097.9487,4077.9487,4091.7949,4126.6667,4120.5128,4121.0256,4092.3077,4081.5385,3773.3333,3963.0769
4083.0769,4100.5128,4095.3846,4074.8718,4088.7179,4122.0513,4119.4872,4126.1538,4092.3077,4087.1795,3772.8205,3960
4083.0769,4103.0769,4101.5385,4080.5128,4095.8974,4134.8718,4128.7179,4124.1026,4105.641,4090.2564,3790.2564,3963.5897
4089.7436,4106.1538,4109.2308,4088.2051,4099.4872,4138.9744,4133.3333,4126.6667,4109.2308,4094.359,3790.2564,3969.7436
4093.3333,4103.0769,4111.7949,4085.1282,4092.3077,4127.1795,4126.1538,4134.359,4103.0769,4106.6667,3768.2051,3966.6667
4093.3333,4100.5128,4111.7949,4076.4103,4089.7436,4122.5641,4121.5385,4127.6923,4104.6154,4109.2308,3763.5897,3964.1026
4090.7692,4103.5897,4107.6923,4073.8462,4086.6667,4124.1026,4118.4615,4118.4615,4099.4872,4093.8462,3770.2564,3960.5128
4082.5641,4106.6667,4106.1538,4081.5385,4077.9487,4120.5128,4112.3077,4120.5128,4088.7179,4086.1538,3758.4615,3945.641
4085.1282,4103.0769,4110.7692,4088.7179,4082.0513,4121.5385,4113.8462,4124.6154,4096.9231,4091.7949,3747.1795,3940.5128
4092.3077,4100.5128,4110.7692,4086.1538,4095.8974,4125.641,4122.0513,4125.641,4107.1795,4097.9487,3756.9231,3953.3333
4090.7692,4103.5897,4105.641,4078.4615,4094.359,4130.7692,4123.0769,4128.7179,4102.5641,4098.9744,3762.0513,3953.8462
4097.4359,4100,4112.3077,4078.9744,4087.6923,4131.7949,4123.0769,4129.2308,4100,4101.0256,3756.4103,3943.5897
4102.5641,4095.8974,4122.0513,4084.1026,4091.2821,4128.7179,4125.641,4129.2308,4105.641,4105.641,3755.8974,3949.7436
4098.4615,4102.0513,4123.0769,4090.2564,4094.8718,4128.2051,4123.0769,4132.3077,4113.3333,4108.7179,3761.0256,3970.2564
4102.0513,4110.2564,4123.0769,4091.2821,4092.3077,4129.7436,4125.1282,4137.9487,4110.2564,4109.7436,3764.6154,3977.9487
4106.1538,4106.6667,4118.9744,4086.6667,4091.7949,4130.7692,4128.7179,4135.8974,4102.5641,4104.1026,3761.0256,3966.6667
4089.2308,4098.9744,4106.6667,4079.4872,4091.7949,4130.7692,4124.1026,4123.5897,4101.0256,4092.3077,3750.2564,3952.8205
4073.3333,4098.9744,4100.5128,4073.3333,4084.1026,4127.6923,4118.9744,4125.1282,4106.6667,4086.1538,3744.6154,3951.7949
4082.5641,4103.5897,4108.7179,4080.5128,4079.4872,4122.5641,4123.5897,4137.9487,4108.2051,4099.4872,3754.8718,3958.4615
4096.4103,4106.6667,4112.8205,4090.2564,4095.3846,4128.7179,4128.2051,4135.3846,4106.1538,4110.2564,3767.6923,3964.1026
4095.3846,4105.641,4114.8718,4084.6154,4110.2564,4136.9231,4126.1538,4129.2308,4107.6923,4102.5641,3767.6923,3968.7179
4088.2051,4100.5128,4117.4359,4075.8974,4098.9744,4129.2308,4124.1026,4129.7436,4111.2821,4097.4359,3760.5128,3961.0256
4087.6923,4102.0513,4115.8974,4081.5385,4083.5897,4117.9487,4123.0769,4126.6667,4112.3077,4104.1026,3759.4872,3952.3077
4096.4103,4109.2308,4116.4103,4085.1282,4089.2308,4119.4872,4120,4124.6154,4106.6667,4108.2051,3767.6923,3965.641
4105.641,4112.8205,4117.9487,4081.0256,4107.1795,4130.2564,4122.5641,4133.8462,4109.2308,4104.6154,3774.8718,3983.5897
4107.1795,4109.2308,4114.359,4086.6667,4105.1282,4134.359,4129.2308,4143.0769,4120,4108.7179,3776.9231,3986.1538
4092.8205,4104.1026,4109.2308,4091.2821,4078.4615,4124.6154,4125.641,4134.8718,4114.359,4108.7179,3769.7436,3976.4103
4083.0769,4105.641,4106.1538,4083.5897,4075.3846,4115.8974,4118.9744,4125.641,4098.9744,4096.4103,3752.3077,3964.1026
4091.7949,4107.6923,4109.2308,4082.5641,4103.5897,4126.6667,4127.1795,4128.2051,4109.2308,4096.4103,3755.3846,3969.7436
4095.3846,4107.1795,4114.359,4092.3077,4112.8205,4138.4615,4137.4359,4131.7949,4129.7436,4107.6923,3778.9744,3984.6154
4088.2051,4105.1282,4113.3333,4095.3846,4096.9231,4130.7692,4131.7949,4133.8462,4125.1282,4112.8205,3782.0513,3983.0769
4090.7692,4105.1282,4108.2051,4089.2308,4089.2308,4119.4872,4122.0513,4129.7436,4113.8462,4112.3077,3764.6154,3974.8718
4092.3077,4105.1282,4107.1795,4088.7179,4094.8718,4124.1026,4123.0769,4125.1282,4110.7692,4104.1026,3752.8205,3968.7179
4084.6154,4102.0513,4106.1538,4090.2564,4099.4872,4135.3846,4125.641,4128.2051,4107.1795,4095.8974,3754.359,3963.5897
4087.6923,4105.641,4109.2308,4090.7692,4105.1282,4136.9231,4128.2051,4133.3333,4112.8205,4102.0513,3763.0769,3975.8974
4090.7692,4109.7436,4113.3333,4093.3333,4110.7692,4137.4359,4130.2564,4133.3333,4125.641,4106.1538,3763.5897,3990.7692
4085.1282,4107.1795,4108.7179,4093.8462,4098.4615,4134.8718,4124.6154,4126.6667,4117.9487,4100.5128,3755.8974,3980.5128
4085.641,4104.6154,4106.6667,4088.2051,4082.5641,4126.1538,4120.5128,4123.5897,4100,4101.5385,3751.2821,3968.7179
4088.7179,4104.1026,4110.2564,4085.1282,4092.3077,4126.6667,4123.5897,4126.1538,4107.6923,4107.1795,3758.9744,3977.4359
4088.7179,4106.6667,4111.2821,4089.2308,4110.2564,4135.3846,4126.6667,4129.7436,4122.5641,4107.6923,3770.7692,3987.1795
4092.8205,4109.7436,4114.359,4092.3077,4107.1795,4129.2308,4128.2051,4133.3333,4119.4872,4111.7949,3769.2308,3990.2564
4093.3333,4106.6667,4111.7949,4088.2051,4097.4359,4118.9744,4125.1282,4132.8205,4109.2308,4111.2821,3757.4359,3987.1795
4085.641,4105.1282,4105.641,4087.1795,4101.0256,4129.7436,4125.1282,4129.7436,4105.641,4102.0513,3758.9744,3985.641
4091.2821,4111.2821,4114.359,4092.8205,4106.1538,4134.8718,4131.2821,4127.1795,4113.3333,4108.2051,3772.3077,3998.9744
4092.3077,4106.1538,4120,4090.2564,4103.5897,4125.1282,4126.6667,4124.6154,4109.2308,4113.3333,3767.1795,4001.5385
4075.8974,4097.9487,4108.2051,4078.4615,4095.3846,4123.5897,4115.3846,4118.9744,4094.8718,4096.4103,3748.2051,3976.4103
4075.3846,4104.1026,4102.0513,4077.4359,4090.2564,4127.1795,4114.8718,4117.9487,4095.8974,4089.7436,3743.5897,3964.6154
4086.1538,4109.7436,4109.2308,4086.1538,4090.2564,4119.4872,4117.9487,4124.6154,4106.1538,4104.1026,3750.7692,3983.5897
4086.6667,4104.1026,4109.2308,4084.1026,4090.2564,4114.8718,4114.359,4123.0769,4110.2564,4103.0769,3756.9231,3994.8718
4086.1538,4102.5641,4105.1282,4081.5385,4089.2308,4126.6667,4116.4103,4121.5385,4107.6923,4090.7692,3750.7692,3985.1282
4088.7179,4108.2051,4109.7436,4088.2051,4090.7692,4129.2308,4121.0256,4124.6154,4105.641,4096.9231,3748.7179,3985.1282
4091.7949,4108.2051,4115.8974,4090.7692,4100,4121.5385,4121.0256,4125.1282,4114.8718,4115.8974,3770.2564,4006.1538
4096.9231,4108.7179,4120,4094.359,4106.6667,4125.641,4123.5897,4126.6667,4121.5385,4124.1026,3782.0513,4016.4103
4100,4110.2564,4121.5385,4103.0769,4094.359,4132.3077,4125.1282,4130.7692,4113.3333,4120,3772.3077,4005.1282
4100,4106.6667,4122.5641,4105.641,4085.641,4128.7179,4123.5897,4133.3333,4118.9744,4117.4359,3781.5385,4007.1795
4104.6154,4112.8205,4127.1795,4105.641,4097.4359,4127.1795,4125.1282,4129.2308,4129.7436,4123.5897,3802.0513,4025.1282
4103.0769,4116.9231,4127.6923,4102.0513,4108.7179,4136.4103,4126.6667,4125.641,4114.359,4125.1282,3792.8205,4022.5641
4090.2564,4105.1282,4112.3077,4090.7692,4108.7179,4142.5641,4123.0769,4127.1795,4107.1795,4116.9231,3776.4103,4003.5897
4092.3077,4106.1538,4108.7179,4092.8205,4105.1282,4137.9487,4122.5641,4127.1795,4122.5641,4119.4872,3782.5641,4005.641
4104.6154,4112.8205,4121.0256,4103.0769,4096.4103,4127.6923,4122.5641,4123.5897,4118.9744,4123.5897,3788.2051,4018.9744
4096.4103,4103.0769,4113.8462,4094.359,4090.7692,4122.0513,4118.4615,4121.5385,4106.1538,4110.2564,3780.5128,4011.2821
4082.0513,4100,4098.4615,4085.641,4090.7692,4123.5897,4116.4103,4122.0513,4114.359,4104.6154,3774.8718,4003.0769
4086.1538,4109.7436,4105.641,4093.8462,4087.6923,4123.0769,4116.9231,4124.1026,4115.8974,4118.4615,3770.7692,4015.3846
4095.3846,4107.1795,4114.359,4097.9487,4085.641,4121.0256,4118.9744,4125.1282,4107.1795,4120.5128,3768.7179,4024.1026
4092.3077,4102.0513,4109.7436,4094.359,4094.8718,4123.5897,4118.4615,4122.0513,4117.4359,4107.6923,3773.3333,4017.9487
4091.2821,4107.6923,4109.7436,4092.8205,4095.8974,4123.5897,4113.8462,4118.9744,4115.8974,4103.0769,3772.8205,4013.3333
4098.4615,4108.7179,4115.3846,4092.3077,4084.6154,4120.5128,4108.2051,4116.9231,4098.9744,4111.7949,3765.641,4016.9231
4110.7692,4108.2051,4119.4872,4095.3846,4086.1538,4120.5128,4110.2564,4116.4103,4109.2308,4121.0256,3770.7692,4023.5897
4108.2051,4110.2564,4122.5641,4100,4100.5128,4123.0769,4118.4615,4122.5641,4121.0256,4122.0513,3785.1282,4027.6923
4092.3077,4107.1795,4118.9744,4096.9231,4096.9231,4123.0769,4118.4615,4123.0769,4109.2308,4117.4359,3785.641,4026.1538
4097.4359,4107.6923,4115.3846,4096.4103,4084.1026,4120.5128,4116.9231,4120.5128,4112.8205,4118.9744,3783.0769,4028.7179
4113.3333,4110.2564,4123.0769,4102.5641,4088.2051,4122.0513,4121.0256,4127.1795,4124.6154,4125.1282,3786.6667,4037.9487
4104.6154,4105.1282,4125.641,4099.4872,4095.8974,4128.7179,4121.0256,4127.1795,4118.4615,4124.6154,3790.2564,4038.9744
4087.1795,4104.6154,4116.4103,4091.2821,4095.8974,4126.6667,4112.3077,4118.9744,4116.9231,4120,3792.8205,4028.2051
4091.7949,4109.2308,4114.359,4090.2564,4094.359,4120,4114.8718,4121.0256,4120,4122.0513,3785.641,4030.2564
4104.6154,4109.2308,4118.4615,4096.9231,4095.8974,4122.5641,4125.641,4127.6923,4113.8462,4126.1538,3772.8205,4043.0769
4099.4872,4109.7436,4115.3846,4103.5897,4098.4615,4124.6154,4123.0769,4126.6667,4115.8974,4120,3766.1538,4037.4359
4084.6154,4110.7692,4110.7692,4101.0256,4101.0256,4129.7436,4122.0513,4121.0256,4120,4109.2308,3764.1026,4023.5897
4072.8205,4106.1538,4108.2051,4092.8205,4095.8974,4136.4103,4122.0513,4119.4872,4105.641,4105.1282,3756.4103,4021.5385
4067.6923,4101.0256,4105.1282,4089.2308,4085.641,4126.6667,4111.2821,4120,4094.8718,4104.1026,3756.4103,4022.5641
4074.359,4107.6923,4112.8205,4095.8974,4089.7436,4115.3846,4114.359,4123.0769,4107.1795,4109.7436,3775.3846,4028.7179
4087.6923,4114.8718,4124.6154,4104.6154,4101.5385,4120.5128,4125.641,4123.0769,4122.0513,4120.5128,3791.2821,4041.5385
4100.5128,4112.3077,4124.6154,4106.1538,4108.2051,4129.2308,4124.1026,4124.1026,4126.1538,4131.2821,3792.8205,4048.7179
4101.5385,4110.2564,4123.5897,4106.6667,4108.7179,4128.7179,4125.641,4127.6923,4121.5385,4131.7949,3789.2308,4044.6154
4093.3333,4107.6923,4123.5897,4105.641,4100.5128,4125.641,4130.2564,4123.5897,4114.359,4121.5385,3786.1538,4034.359
4088.7179,4103.0769,4117.9487,4100.5128,4092.3077,4124.6154,4122.0513,4120,4109.2308,4111.2821,3783.5897,4028.7179
4091.2821,4105.641,4115.3846,4099.4872,4088.7179,4121.0256,4116.9231,4123.5897,4114.359,4112.8205,3787.6923,4035.8974
4093.3333,4112.8205,4121.5385,4105.641,4093.8462,4119.4872,4121.0256,4124.6154,4117.9487,4117.4359,3791.2821,4038.9744
4090.7692,4112.8205,4123.0769,4108.2051,4107.6923,4129.7436,4123.5897,4124.1026,4110.7692,4113.3333,3790.7692,4034.359
4088.2051,4106.1538,4120.5128,4105.641,4106.6667,4135.8974,4125.1282,4124.1026,4111.7949,4115.3846,3797.4359,4035.8974
4090.7692,4107.6923,4121.0256,4105.1282,4089.7436,4120,4125.641,4124.1026,4123.5897,4118.9744,3808.2051,4036.4103
4096.9231,4111.2821,4118.4615,4107.1795,4094.359,4112.3077,4123.5897,4125.1282,4121.0256,4114.359,3806.6667,4031.7949
4094.8718,4108.7179,4111.7949,4106.1538,4113.3333,4123.5897,4123.5897,4123.5897,4108.7179,4105.641,3800.5128,4032.3077
4087.1795,4108.2051,4109.7436,4102.0513,4109.7436,4123.0769,4123.5897,4121.0256,4113.3333,4103.0769,3806.6667,4038.9744
4087.1795,4109.2308,4110.7692,4098.9744,4100,4119.4872,4120,4121.0256,4124.6154,4108.2051,3813.3333,4040
4091.2821,4106.6667,4106.6667,4095.8974,4106.1538,4126.6667,4119.4872,4120.5128,4117.9487,4106.1538,3809.7436,4034.8718
4089.2308,4104.6154,4103.5897,4098.9744,4111.7949,4128.2051,4124.1026,4121.5385,4113.3333,4103.0769,3808.2051,4036.4103
4088.7179,4104.1026,4112.3077,4107.6923,4107.1795,4123.0769,4125.641,4126.6667,4118.9744,4111.7949,3818.4615,4045.641
4097.9487,4107.6923,4122.0513,4111.2821,4102.5641,4120.5128,4126.6667,4127.6923,4121.5385,4117.9487,3829.2308,4050.7692
4106.1538,4109.7436,4118.4615,4110.7692,4100,4116.9231,4128.2051,4124.1026,4126.1538,4115.3846,3834.359,4053.8462
4096.9231,4106.1538,4109.2308,4109.2308,4099.4872,4120.5128,4129.7436,4123.5897,4124.1026,4111.2821,3832.8205,4049.2308
4087.1795,4103.5897,4114.359,4106.1538,4106.6667,4127.6923,4132.3077,4125.641,4114.8718,4112.3077,3826.6667,4040
4098.4615,4104.6154,4125.1282,4105.1282,4106.1538,4126.6667,4131.7949,4124.6154,4117.9487,4116.9231,3833.8462,4047.6923
4108.2051,4104.1026,4116.9231,4107.6923,4093.8462,4123.0769,4127.6923,4124.1026,4121.5385,4117.4359,3840,4054.8718
4107.6923,4100.5128,4107.6923,4105.641,4094.359,4122.5641,4124.6154,4126.1538,4118.9744,4114.359,3845.1282,4054.8718
4107.1795,4103.0769,4117.9487,4107.1795,4104.6154,4122.5641,4123.0769,4127.1795,4120,4115.3846,3856.4103,4063.0769
4104.1026,4108.7179,4127.1795,4110.2564,4105.641,4126.1538,4126.6667,4127.6923,4124.1026,4121.5385,3852.8205,4067.6923
4108.7179,4107.6923,4122.5641,4109.7436,4102.0513,4127.6923,4130.7692,4126.1538,4124.6154,4124.1026,3852.8205,4064.6154
4122.0513,4107.6923,4120.5128,4114.8718,4108.7179,4122.5641,4130.2564,4123.0769,4126.1538,4122.5641,3870.2564,4072.3077
4124.6154,4110.2564,4124.1026,4123.5897,4119.4872,4123.5897,4128.7179,4124.1026,4126.1538,4122.0513,3871.7949,4081.0256
4115.8974,4108.7179,4120,4117.4359,4120.5128,4126.6667,4130.2564,4124.6154,4119.4872,4120,3857.9487,4074.8718
4117.4359,4107.6923,4120.5128,4111.7949,4118.9744,4120.5128,4128.2051,4121.0256,4121.0256,4122.5641,3867.6923,4072.3077
4126.1538,4109.7436,4127.1795,4121.5385,4118.4615,4118.4615,4126.1538,4121.0256,4128.7179,4128.2051,3884.6154,4079.4872
4120.5128,4111.7949,4126.1538,4124.6154,4115.3846,4124.1026,4126.1538,4124.6154,4125.1282,4127.6923,3880,4074.8718
4105.1282,4109.2308,4121.0256,4111.7949,4110.7692,4125.641,4123.0769,4124.1026,4114.8718,4122.0513,3875.8974,4064.6154
4108.2051,4106.1538,4122.0513,4104.6154,4109.7436,4125.641,4123.5897,4123.0769,4121.0256,4120,3881.0256,4069.7436
4124.1026,4109.2308,4125.1282,4109.2308,4109.7436,4126.6667,4127.6923,4126.6667,4133.3333,4125.1282,3881.5385,4080
4121.0256,4109.7436,4122.0513,4109.7436,4108.2051,4122.5641,4123.5897,4125.1282,4127.6923,4123.5897,3876.9231,4070.2564
4110.7692,4105.1282,4120.5128,4106.1538,4109.7436,4118.9744,4119.4872,4122.5641,4118.4615,4117.4359,3881.5385,4061.0256
4119.4872,4109.2308,4123.0769,4112.8205,4112.3077,4124.1026,4126.1538,4130.2564,4123.0769,4123.5897,3894.359,4073.8462
4125.1282,4117.4359,4127.1795,4122.5641,4118.4615,4127.1795,4131.7949,4136.9231,4127.6923,4129.7436,3903.0769,4084.6154
4111.2821,4114.359,4124.6154,4117.9487,4125.1282,4126.6667,4131.2821,4128.7179,4124.1026,4124.1026,3905.641,4078.9744
4103.5897,4105.641,4111.7949,4106.1538,4117.9487,4131.2821,4130.2564,4121.0256,4124.1026,4119.4872,3901.5385,4071.2821
4109.7436,4106.1538,4109.2308,4105.641,4110.2564,4133.3333,4129.2308,4126.6667,4124.1026,4121.0256,3900,4076.4103
4111.2821,4110.7692,4118.9744,4109.7436,4111.7949,4125.1282,4129.7436,4131.2821,4123.5897,4121.5385,3907.6923,4087.6923
4105.1282,4105.641,4116.9231,4106.6667,4103.5897,4120,4126.6667,4126.6667,4122.0513,4122.5641,3909.7436,4087.1795
4102.0513,4103.5897,4104.6154,4102.5641,4089.2308,4120,4122.0513,4122.5641,4120.5128,4120.5128,3906.6667,4074.8718
4108.7179,4110.2564,4111.7949,4105.641,4093.3333,4117.9487,4123.0769,4122.5641,4123.0769,4118.4615,3911.2821,4073.3333
4115.8974,4114.359,4123.0769,4111.2821,4113.3333,4127.1795,4127.1795,4122.5641,4121.5385,4121.5385,3908.2051,4082.0513
4119.4872,4116.9231,4121.0256,4112.3077,4124.1026,4137.9487,4127.1795,4124.1026,4124.6154,4124.6154,3907.6923,4088.2051
4125.1282,4118.4615,4127.1795,4115.8974,4120,4131.7949,4126.1538,4127.1795,4137.9487,4132.8205,3923.0769,4093.8462
4130.2564,4117.9487,4135.8974,4119.4872,4111.2821,4121.0256,4125.1282,4125.641,4137.9487,4136.9231,3925.1282,4094.359
4127.1795,4110.2564,4127.6923,4111.7949,4104.6154,4117.9487,4121.0256,4120,4125.641,4130.7692,3912.3077,4082.0513
4118.4615,4104.1026,4117.4359,4103.5897,4104.6154,4122.0513,4121.0256,4120.5128,4122.5641,4120,3906.6667,4069.2308
4117.9487,4111.2821,4120.5128,4105.1282,4109.7436,4124.6154,4122.0513,4123.5897,4121.0256,4116.4103,3907.6923,4073.8462
4124.1026,4115.3846,4125.641,4108.2051,4107.1795,4116.9231,4121.0256,4122.0513,4125.641,4129.2308,3916.9231,4090.7692
4124.6154,4110.7692,4126.1538,4108.2051,4098.9744,4112.3077,4123.0769,4125.1282,4136.9231,4141.0256,3925.1282,4096.9231
4117.4359,4104.6154,4125.1282,4108.2051,4096.9231,4119.4872,4124.6154,4125.1282,4129.7436,4134.8718,3921.5385,4091.2821
4115.3846,4105.641,4123.5897,4107.6923,4101.0256,4123.0769,4123.5897,4117.9487,4122.0513,4130.2564,3931.2821,4088.2051
4123.0769,4109.7436,4125.1282,4109.2308,4106.1538,4118.9744,4123.5897,4119.4872,4130.2564,4134.8718,3945.641,4091.7949
4122.0513,4108.7179,4122.0513,4108.7179,4105.1282,4119.4872,4123.5897,4123.5897,4131.2821,4130.7692,3935.3846,4089.7436
4118.4615,4109.2308,4120.5128,4107.1795,4107.6923,4124.1026,4121.5385,4123.0769,4129.2308,4129.2308,3933.3333,4087.6923
4133.3333,4115.8974,4125.1282,4114.8718,4116.4103,4125.1282,4121.0256,4124.1026,4142.5641,4141.0256,3961.5385,4100
4141.0256,4117.4359,4126.6667,4120.5128,4116.4103,4120.5128,4121.0256,4125.1282,4143.5897,4143.0769,3975.3846,4110.2564
4126.1538,4109.2308,4122.5641,4110.2564,4111.7949,4123.5897,4122.0513,4124.1026,4131.2821,4135.8974,3958.9744,4102.0513
4125.641,4106.1538,4118.4615,4104.6154,4116.9231,4134.8718,4125.1282,4125.641,4132.3077,4136.4103,3953.8462,4097.9487
4134.8718,4111.2821,4127.1795,4117.9487,4126.6667,4133.3333,4127.6923,4126.1538,4138.9744,4138.9744,3965.641,4106.6667
4130.2564,4111.2821,4137.4359,4123.0769,4122.5641,4123.0769,4125.1282,4125.1282,4140,4138.9744,3965.641,4107.1795
4129.2308,4105.1282,4130.7692,4116.4103,4114.8718,4128.7179,4122.5641,4124.1026,4136.9231,4137.4359,3960,4102.0513
4136.4103,4104.6154,4123.0769,4117.4359,4116.4103,4138.9744,4127.6923,4123.5897,4136.4103,4138.4615,3965.641,4104.1026
4137.4359,4106.1538,4129.2308,4121.5385,4115.8974,4136.4103,4127.6923,4120.5128,4141.5385,4142.0513,3973.3333,4107.1795
4136.4103,4105.641,4129.2308,4118.9744,4113.8462,4131.2821,4122.0513,4120,4137.9487,4139.4872,3973.8462,4106.6667
4129.7436,4102.5641,4119.4872,4115.3846,4116.4103,4133.8462,4126.6667,4127.6923,4131.2821,4137.4359,3970.2564,4101.0256
4126.6667,4104.6154,4127.1795,4114.8718,4124.6154,4140,4134.8718,4132.3077,4141.0256,4141.5385,3973.3333,4097.9487
4135.3846,4110.7692,4136.9231,4119.4872,4124.1026,4137.9487,4130.7692,4124.6154,4153.3333,4148.2051,3987.1795,4108.2051
4131.7949,4106.1538,4130.7692,4120,4110.2564,4127.1795,4122.5641,4120,4145.1282,4148.7179,3994.8718,4115.3846
4124.6154,4102.0513,4121.5385,4115.8974,4110.2564,4124.6154,4122.0513,4124.1026,4132.8205,4142.0513,3987.1795,4106.6667
4132.3077,4106.6667,4124.1026,4120,4121.0256,4135.8974,4125.641,4125.1282,4134.8718,4140,3986.6667,4101.5385
4141.5385,4105.1282,4133.8462,4125.1282,4119.4872,4136.9231,4128.2051,4124.1026,4141.5385,4149.7436,4002.5641,4113.8462
4143.0769,4103.0769,4137.9487,4122.5641,4114.359,4123.5897,4125.641,4124.6154,4142.5641,4153.3333,4008.7179,4119.4872
4134.8718,4106.1538,4130.7692,4120.5128,4115.3846,4121.0256,4119.4872,4121.0256,4140.5128,4141.0256,3996.4103,4107.1795
4124.6154,4106.1538,4120,4114.359,4113.8462,4125.641,4117.4359,4120,4136.9231,4132.3077,3984.6154,4097.9487
4130.7692,4104.6154,4120,4111.2821,4111.7949,4122.5641,4117.4359,4123.0769,4136.9231,4134.8718,3984.6154,4105.1282
4144.1026,4105.641,4126.6667,4118.9744,4120,4121.0256,4118.9744,4122.5641,4138.4615,4138.4615,3993.8462,4114.359
4141.0256,4107.1795,4128.2051,4124.1026,4128.7179,4126.1538,4121.5385,4120.5128,4134.359,4136.9231,3999.4872,4110.7692
4136.4103,4108.2051,4128.7179,4122.5641,4121.0256,4121.5385,4119.4872,4121.0256,4138.4615,4135.3846,3996.4103,4106.6667
4136.4103,4107.6923,4123.0769,4122.5641,4107.6923,4113.8462,4118.4615,4122.0513,4138.9744,4128.7179,3990.2564,4103.0769
4134.8718,4108.2051,4120.5128,4123.5897,4109.7436,4119.4872,4120.5128,4122.0513,4130.7692,4125.641,3986.6667,4098.9744
4135.8974,4109.2308,4126.1538,4122.5641,4120,4130.7692,4121.5385,4122.0513,4140.5128,4133.3333,3989.7436,4100
4132.8205,4108.7179,4126.6667,4121.5385,4121.5385,4131.7949,4122.0513,4121.5385,4149.7436,4137.4359,4000,4100.5128
4132.3077,4111.2821,4122.0513,4123.0769,4118.4615,4125.641,4122.5641,4120,4137.9487,4135.3846,4013.8462,4106.6667
4142.5641,4115.3846,4125.1282,4123.0769,4121.5385,4124.1026,4123.5897,4122.5641,4141.5385,4138.9744,4021.0256,4115.3846
4137.9487,4112.8205,4129.7436,4120.5128,4117.9487,4124.1026,4124.6154,4124.6154,4154.359,4142.5641,4018.4615,4111.7949
4121.0256,4106.6667,4124.6154,4119.4872,4112.3077,4121.5385,4117.9487,4122.5641,4141.0256,4137.9487,4016.4103,4101.0256
4119.4872,4106.6667,4119.4872,4114.8718,4116.4103,4120,4112.8205,4122.5641,4137.9487,4134.359,4021.5385,4104.6154
4128.2051,4107.1795,4120.5128,4107.1795,4123.0769,4123.0769,4119.4872,4124.6154,4157.9487,4140.5128,4032.3077,4113.3333
4130.2564,4106.1538,4123.5897,4110.7692,4119.4872,4125.641,4124.6154,4127.1795,4149.2308,4144.6154,4030.7692,4108.2051
4131.2821,4112.3077,4130.2564,4122.5641,4111.7949,4123.5897,4121.5385,4128.7179,4134.8718,4143.5897,4022.5641,4106.1538
4135.3846,4115.3846,4137.9487,4126.1538,4116.4103,4121.0256,4118.9744,4124.6154,4151.2821,4140,4033.8462,4117.9487
4138.9744,4110.2564,4137.9487,4124.6154,4123.0769,4122.5641,4120.5128,4121.0256,4154.359,4138.9744,4045.1282,4119.4872
4141.0256,4111.2821,4131.7949,4123.5897,4121.0256,4127.1795,4122.5641,4122.5641,4138.4615,4140,4038.4615,4111.2821
4137.9487,4114.359,4131.7949,4121.0256,4122.0513,4128.7179,4122.0513,4122.0513,4144.1026,4140,4035.3846,4110.7692
4133.8462,4110.7692,4135.3846,4119.4872,4123.0769,4124.1026,4118.4615,4123.0769,4149.2308,4140,4037.9487,4110.7692
4135.8974,4110.7692,4137.9487,4120.5128,4119.4872,4119.4872,4112.8205,4125.641,4136.4103,4141.5385,4030.2564,4106.6667
4138.9744,4117.9487,4135.3846,4121.0256,4121.5385,4118.9744,4112.8205,4123.5897,4136.9231,4139.4872,4030.7692,4108.2051
4133.8462,4113.8462,4128.7179,4121.0256,4127.6923,4123.0769,4118.9744,4123.0769,4148.7179,4132.8205,4047.6923,4112.3077
4120,4103.5897,4120.5128,4113.3333,4120.5128,4124.1026,4120,4123.5897,4145.1282,4125.641,4049.7436,4107.6923
4115.8974,4105.641,4118.4615,4106.1538,4114.359,4121.0256,4117.9487,4122.5641,4136.9231,4121.5385,4035.8974,4100.5128
4127.6923,4108.7179,4126.6667,4112.3077,4126.1538,4128.2051,4121.0256,4122.0513,4135.8974,4126.6667,4029.7436,4103.0769
4139.4872,4109.2308,4136.4103,4123.5897,4134.359,4137.9487,4127.1795,4121.0256,4140.5128,4135.8974,4045.641,4115.3846
4135.8974,4114.359,4138.9744,4125.1282,4128.7179,4129.7436,4127.6923,4124.6154,4146.6667,4137.4359,4062.5641,4117.4359
4128.2051,4115.3846,4134.8718,4121.0256,4131.7949,4125.641,4125.1282,4134.359,4148.7179,4135.3846,4056.4103,4108.7179
4132.8205,4111.7949,4135.8974,4121.5385,4141.0256,4138.4615,4129.2308,4137.9487,4145.1282,4138.9744,4047.1795,4114.359
4142.0513,4112.3077,4138.4615,4117.9487,4133.8462,4144.1026,4134.8718,4135.8974,4147.6923,4144.1026,4060,4126.6667
4138.4615,4114.359,4135.8974,4108.7179,4123.0769,4140,4137.9487,4129.7436,4153.8462,4141.0256,4077.9487,4124.6154
4133.8462,4115.3846,4134.8718,4110.7692,4123.5897,4133.8462,4135.8974,4129.7436,4150.7692,4139.4872,4071.7949,4121.5385
4138.9744,4112.8205,4138.4615,4122.0513,4122.0513,4127.6923,4131.2821,4136.9231,4147.6923,4146.6667,4056.9231,4125.641
4138.9744,4111.7949,4140.5128,4124.1026,4122.5641,4133.8462,4130.2564,4131.2821,4145.641,4145.641,4058.9744,4121.0256
4133.8462,4108.2051,4136.9231,4118.4615,4120.5128,4137.4359,4126.6667,4118.4615,4145.641,4140,4067.1795,4114.8718
4138.9744,4108.2051,4136.9231,4118.9744,4117.9487,4129.2308,4126.1538,4124.1026,4149.7436,4147.1795,4071.2821,4123.5897
4144.6154,4115.8974,4139.4872,4124.6154,4127.1795,4130.7692,4134.359,4138.9744,4155.8974,4155.3846,4077.9487,4136.9231
4139.4872,4115.8974,4139.4872,4125.1282,4132.3077,4138.9744,4138.4615,4139.4872,4155.3846,4154.359,4078.9744,4140
4138.4615,4112.8205,4136.4103,4122.5641,4130.7692,4136.9231,4131.7949,4132.8205,4152.8205,4152.3077,4073.3333,4134.359
4140,4110.2564,4129.2308,4122.5641,4130.7692,4133.3333,4126.1538,4124.1026,4154.359,4146.1538,4074.359,4129.2308
4131.2821,4103.5897,4121.0256,4121.0256,4127.1795,4133.3333,4126.1538,4118.4615,4150.2564,4135.8974,4068.2051,4123.0769
4122.5641,4106.6667,4123.0769,4120.5128,4126.6667,4132.8205,4132.8205,4130.2564,4151.2821,4136.4103,4062.0513,4120
4126.1538,4114.359,4128.2051,4122.0513,4121.5385,4128.7179,4133.8462,4133.3333,4157.9487,4141.0256,4071.7949,4123.5897
4134.8718,4114.359,4125.1282,4123.0769,4112.8205,4120.5128,4125.1282,4123.5897,4153.3333,4141.5385,4071.2821,4124.6154
4141.0256,4116.4103,4133.3333,4128.7179,4122.5641,4124.1026,4127.6923,4130.2564,4149.7436,4144.1026,4068.2051,4124.1026
4142.0513,4117.9487,4142.0513,4133.3333,4136.9231,4135.8974,4133.3333,4132.8205,4153.8462,4142.0513,4076.4103,4125.641
4137.9487,4111.7949,4131.7949,4126.6667,4132.3077,4135.8974,4127.6923,4122.5641,4149.7436,4132.8205,4072.3077,4116.4103
4135.8974,4109.7436,4127.1795,4124.1026,4125.1282,4133.3333,4127.1795,4127.6923,4146.6667,4135.8974,4061.5385,4110.7692
4137.9487,4114.8718,4140.5128,4132.3077,4126.6667,4136.9231,4138.4615,4135.8974,4155.3846,4151.2821,4069.7436,4129.2308
4139.4872,4114.359,4146.1538,4134.8718,4130.7692,4136.9231,4138.9744,4125.1282,4155.3846,4154.359,4080.5128,4138.9744
4136.4103,4112.8205,4135.8974,4128.2051,4134.359,4135.3846,4128.7179,4116.9231,4147.1795,4141.0256,4072.3077,4124.6154
4128.7179,4112.3077,4125.641,4123.0769,4127.1795,4133.8462,4127.1795,4124.1026,4151.2821,4135.3846,4065.641,4116.4103
4126.1538,4106.6667,4123.5897,4123.0769,4120,4129.7436,4131.2821,4131.2821,4154.8718,4140.5128,4066.6667,4118.9744
4122.0513,4104.6154,4125.641,4122.5641,4126.1538,4128.7179,4133.8462,4133.8462,4149.7436,4138.9744,4065.1282,4111.7949
4120,4112.8205,4125.1282,4119.4872,4125.1282,4134.359,4132.8205,4129.7436,4150.2564,4134.359,4066.6667,4110.2564
4128.7179,4117.9487,4129.7436,4122.5641,4123.0769,4137.9487,4136.4103,4122.5641,4155.3846,4140.5128,4077.9487,4122.0513
4131.2821,4112.3077,4136.4103,4124.6154,4129.7436,4137.9487,4138.9744,4127.6923,4152.8205,4146.6667,4080.5128,4126.1538
4130.7692,4107.1795,4138.9744,4124.1026,4129.2308,4135.8974,4136.9231,4138.4615,4155.3846,4152.3077,4078.9744,4125.641
4138.4615,4112.8205,4144.6154,4132.3077,4126.1538,4135.8974,4137.9487,4135.3846,4160.5128,4161.0256,4088.7179,4135.3846
4135.3846,4113.8462,4147.6923,4133.3333,4124.6154,4137.4359,4138.4615,4129.7436,4157.9487,4162.0513,4098.9744,4141.5385
4129.2308,4108.2051,4141.0256,4123.5897,4121.0256,4136.4103,4136.9231,4133.8462,4158.9744,4158.4615,4097.9487,4138.4615
4143.0769,4110.7692,4144.1026,4127.1795,4126.1538,4133.8462,4137.4359,4137.4359,4163.5897,4162.0513,4092.3077,4133.3333
4149.2308,4118.4615,4155.3846,4140,4139.4872,4136.4103,4137.9487,4133.3333,4167.6923,4169.2308,4097.9487,4136.9231
4137.9487,4120.5128,4157.9487,4142.5641,4135.8974,4133.3333,4136.4103,4131.2821,4167.6923,4167.6923,4109.2308,4143.5897
4137.4359,4112.8205,4151.7949,4134.8718,4115.8974,4122.5641,4128.7179,4126.1538,4157.9487,4158.4615,4105.641,4135.8974
4140.5128,4105.641,4148.7179,4128.2051,4112.3077,4125.641,4124.1026,4118.4615,4155.8974,4152.3077,4097.4359,4126.6667
4135.8974,4112.3077,4152.8205,4134.359,4124.6154,4138.4615,4131.7949,4130.7692,4163.5897,4152.8205,4097.9487,4129.7436
4139.4872,4121.0256,4156.4103,4144.1026,4135.8974,4139.4872,4140,4142.5641,4159.4872,4157.9487,4095.3846,4130.7692
4148.7179,4118.9744,4154.359,4143.0769,4135.8974,4135.3846,4137.9487,4130.2564,4148.2051,4154.8718,4090.7692,4127.1795
4149.2308,4113.3333,4153.8462,4147.1795,4132.3077,4138.4615,4137.4359,4126.6667,4153.8462,4152.3077,4093.3333,4132.3077
4143.0769,4111.7949,4155.3846,4152.3077,4129.7436,4140,4140.5128,4132.3077,4165.641,4154.8718,4098.9744,4133.3333
4133.8462,4108.2051,4149.2308,4140,4132.8205,4136.9231,4138.4615,4128.2051,4161.5385,4151.7949,4102.0513,4124.6154
4132.8205,4107.6923,4148.7179,4133.3333,4138.4615,4142.0513,4135.3846,4129.7436,4156.9231,4152.3077,4104.1026,4127.1795
4147.1795,4116.4103,4160,4148.2051,4134.8718,4144.1026,4138.4615,4136.4103,4169.7436,4160,4112.3077,4141.0256
4152.3077,4118.9744,4160.5128,4153.3333,4125.641,4131.7949,4139.4872,4128.2051,4173.3333,4158.4615,4116.9231,4142.0513
4136.9231,4107.6923,4152.8205,4141.0256,4119.4872,4128.2051,4136.9231,4119.4872,4158.4615,4151.2821,4111.2821,4127.1795
4122.5641,4103.5897,4152.8205,4138.4615,4122.0513,4136.9231,4138.9744,4125.1282,4156.9231,4151.2821,4103.5897,4118.9744
4124.6154,4109.7436,4150.7692,4140.5128,4127.1795,4141.0256,4141.5385,4125.641,4158.9744,4145.641,4096.4103,4124.6154
4131.2821,4110.2564,4143.0769,4135.3846,4128.7179,4144.6154,4134.359,4117.9487,4146.1538,4134.8718,4091.2821,4121.5385
4140.5128,4112.8205,4148.2051,4141.5385,4131.2821,4139.4872,4127.1795,4116.9231,4152.3077,4138.9744,4098.9744,4117.9487
4148.2051,4117.9487,4157.4359,4151.2821,4134.8718,4125.641,4125.1282,4119.4872,4173.8462,4151.7949,4112.3077,4129.2308
4139.4872,4112.3077,4151.7949,4141.5385,4134.359,4127.6923,4126.1538,4125.1282,4169.2308,4150.7692,4110.7692,4134.8718
4126.6667,4104.6154,4142.0513,4132.3077,4127.1795,4137.9487,4129.2308,4125.641,4154.359,4142.0513,4103.0769,4126.6667
4124.1026,4105.1282,4135.8974,4137.4359,4120,4128.7179,4127.1795,4117.9487,4152.3077,4137.4359,4105.1282,4116.4103
4126.1538,4109.7436,4134.8718,4136.9231,4118.4615,4122.0513,4125.1282,4114.359,4145.1282,4135.3846,4106.1538,4114.359
4125.1282,4110.2564,4138.4615,4133.8462,4120,4128.2051,4126.6667,4120,4145.1282,4136.4103,4106.1538,4119.4872
4125.641,4110.2564,4140.5128,4138.9744,4122.5641,4126.1538,4126.6667,4124.6154,4157.9487,4140.5128,4112.3077,4124.1026
4124.6154,4111.7949,4139.4872,4135.3846,4122.0513,4123.0769,4129.2308,4125.1282,4163.0769,4144.1026,4117.9487,4126.1538
4123.5897,4110.7692,4138.9744,4128.2051,4122.5641,4127.1795,4130.2564,4125.1282,4158.9744,4146.1538,4114.8718,4124.1026
4132.3077,4112.3077,4140,4133.3333,4126.1538,4130.2564,4127.6923,4123.0769,4155.8974,4145.641,4118.4615,4120
4141.0256,4113.3333,4139.4872,4140.5128,4121.5385,4127.6923,4129.7436,4122.5641,4159.4872,4147.6923,4126.1538,4128.2051
4139.4872,4111.7949,4140,4137.9487,4117.4359,4124.1026,4133.8462,4128.2051,4165.641,4153.8462,4121.5385,4141.5385
4132.3077,4107.1795,4142.0513,4136.9231,4113.8462,4124.6154,4126.1538,4123.0769,4164.6154,4151.7949,4119.4872,4138.4615
4123.5897,4105.1282,4138.9744,4138.9744,4106.6667,4117.4359,4114.8718,4114.359,4155.8974,4138.9744,4126.1538,4124.1026
4124.1026,4110.2564,4136.9231,4133.8462,4109.2308,4107.6923,4116.9231,4117.9487,4153.3333,4135.3846,4133.8462,4125.1282
4129.2308,4108.7179,4137.4359,4127.1795,4114.359,4111.2821,4117.4359,4123.5897,4149.7436,4141.5385,4124.1026,4128.2051
4117.4359,4101.5385,4128.2051,4122.0513,4117.4359,4121.0256,4113.3333,4119.4872,4141.0256,4131.7949,4100.5128,4111.2821
4108.2051,4105.641,4121.5385,4128.2051,4123.0769,4124.1026,4117.4359,4117.9487,4149.2308,4120,4103.5897,4102.5641
4122.5641,4113.3333,4129.2308,4142.0513,4119.4872,4122.5641,4124.6154,4119.4872,4159.4872,4130.2564,4128.2051,4120.5128
4125.1282,4108.2051,4129.2308,4141.0256,4110.7692,4122.0513,4123.5897,4118.4615,4152.3077,4134.359,4124.1026,4126.6667
4113.3333,4100.5128,4119.4872,4127.6923,4116.9231,4124.6154,4118.9744,4118.9744,4149.2308,4122.0513,4105.1282,4110.2564
4124.1026,4104.1026,4126.6667,4130.2564,4127.1795,4126.6667,4123.0769,4123.0769,4155.3846,4125.1282,4120.5128,4116.9231
4142.5641,4114.8718,4140,4143.0769,4122.0513,4125.1282,4125.641,4127.1795,4158.9744,4142.5641,4142.0513,4137.9487
4135.3846,4117.4359,4139.4872,4141.5385,4114.8718,4124.6154,4122.0513,4123.0769,4159.4872,4146.1538,4143.0769,4140.5128
4118.9744,4106.1538,4134.359,4133.3333,4113.3333,4126.1538,4122.5641,4119.4872,4157.4359,4140.5128,4140,4133.8462
4122.0513,4102.0513,4133.8462,4135.3846,4107.1795,4123.0769,4123.5897,4129.2308,4156.4103,4143.0769,4135.8974,4130.7692
4136.4103,4113.3333,4137.9487,4142.0513,4105.641,4120.5128,4124.6154,4130.7692,4156.9231,4145.641,4136.4103,4134.359
4132.3077,4114.8718,4137.4359,4133.8462,4114.8718,4123.5897,4127.6923,4119.4872,4147.1795,4140,4138.9744,4133.3333
4116.9231,4101.0256,4124.1026,4119.4872,4115.3846,4123.0769,4124.6154,4114.359,4140.5128,4134.8718,4141.0256,4124.6154
4116.9231,4104.6154,4120,4125.641,4106.6667,4117.4359,4122.0513,4119.4872,4148.7179,4140,4144.1026,4125.1282
4127.6923,4117.9487,4135.8974,4138.9744,4108.7179,4115.8974,4127.1795,4127.6923,4154.8718,4148.2051,4143.0769,4137.9487
4132.8205,4113.3333,4136.9231,4134.8718,4122.0513,4119.4872,4129.7436,4131.2821,4151.2821,4147.6923,4144.1026,4142.0513
4134.359,4108.2051,4124.6154,4130.7692,4125.1282,4122.0513,4129.7436,4127.1795,4152.8205,4143.5897,4153.8462,4137.9487
4132.3077,4111.7949,4126.1538,4137.9487,4116.4103,4123.5897,4132.8205,4121.5385,4159.4872,4142.0513,4153.8462,4139.4872
4122.5641,4108.7179,4127.6923,4137.9487,4109.7436,4124.6154,4128.7179,4124.1026,4147.6923,4140,4138.4615,4132.3077
4120.5128,4104.6154,4120.5128,4132.3077,4111.2821,4123.0769,4122.5641,4126.6667,4135.3846,4136.4103,4133.3333,4121.0256
4123.0769,4107.1795,4118.9744,4128.2051,4112.3077,4121.5385,4126.1538,4124.6154,4147.6923,4137.9487,4139.4872,4120
4121.5385,4107.1795,4121.0256,4124.1026,4109.2308,4121.5385,4126.1538,4122.5641,4154.359,4138.9744,4138.9744,4121.5385
4121.5385,4103.5897,4121.0256,4129.2308,4115.8974,4121.5385,4120.5128,4120.5128,4146.1538,4138.4615,4138.9744,4124.1026
4122.5641,4107.6923,4124.1026,4140,4120,4122.5641,4123.0769,4121.5385,4147.6923,4138.9744,4144.1026,4126.1538
4123.0769,4115.8974,4123.0769,4132.8205,4104.1026,4117.9487,4125.1282,4122.5641,4148.2051,4135.8974,4149.2308,4122.0513
4124.6154,4114.359,4118.9744,4123.0769,4094.8718,4113.8462,4123.0769,4123.5897,4141.0256,4133.3333,4151.2821,4121.5385
4124.1026,4107.1795,4122.0513,4132.8205,4105.1282,4116.9231,4126.6667,4127.6923,4143.0769,4140,4152.8205,4127.6923
4119.4872,4104.6154,4123.5897,4135.3846,4116.4103,4121.0256,4127.1795,4124.6154,4144.1026,4145.1282,4152.8205,4125.641
4117.9487,4108.2051,4117.9487,4123.0769,4118.4615,4122.5641,4125.1282,4119.4872,4138.9744,4144.6154,4147.6923,4124.1026
4123.0769,4115.8974,4118.9744,4126.1538,4114.359,4123.0769,4125.1282,4123.0769,4147.6923,4150.2564,4152.8205,4138.4615
4125.1282,4115.3846,4127.1795,4141.0256,4106.6667,4117.9487,4125.641,4126.6667,4159.4872,4154.359,4168.2051,4148.7179
4122.5641,4106.6667,4126.1538,4138.4615,4105.1282,4108.7179,4122.5641,4125.1282,4149.2308,4143.0769,4163.5897,4136.9231
4119.4872,4104.6154,4118.9744,4129.2308,4112.8205,4112.8205,4122.0513,4121.0256,4134.8718,4134.359,4146.6667,4123.5897
4119.4872,4113.8462,4120,4135.8974,4122.0513,4124.6154,4125.1282,4118.9744,4133.8462,4134.8718,4145.641,4125.1282
4123.5897,4116.9231,4125.641,4145.1282,4127.1795,4127.1795,4125.641,4123.0769,4140,4139.4872,4161.5385,4134.8718
4133.3333,4109.2308,4124.6154,4142.0513,4122.0513,4123.5897,4125.1282,4124.1026,4146.6667,4141.0256,4170.7692,4139.4872
4137.4359,4109.7436,4121.0256,4136.9231,4114.8718,4122.5641,4127.1795,4126.1538,4153.3333,4137.4359,4169.2308,4134.359
4131.7949,4113.8462,4124.1026,4138.4615,4117.9487,4122.0513,4129.7436,4134.8718,4153.8462,4146.1538,4169.2308,4129.7436
4125.641,4110.2564,4124.1026,4138.9744,4124.1026,4122.5641,4128.2051,4133.8462,4139.4872,4153.3333,4167.6923,4133.3333
4124.1026,4108.7179,4118.4615,4134.8718,4123.0769,4123.0769,4123.5897,4123.0769,4136.9231,4144.6154,4167.1795,4135.8974
4123.0769,4111.2821,4120.5128,4135.3846,4120.5128,4123.0769,4122.0513,4119.4872,4150.7692,4137.9487,4171.7949,4136.4103
4125.1282,4113.8462,4124.6154,4140.5128,4121.5385,4123.0769,4123.0769,4120.5128,4151.2821,4141.0256,4169.7436,4137.9487
4122.5641,4106.1538,4116.4103,4138.9744,4108.7179,4116.4103,4120,4119.4872,4142.0513,4139.4872,4156.9231,4133.3333
4117.4359,4102.5641,4111.7949,4133.8462,4097.9487,4111.2821,4118.4615,4121.0256,4137.4359,4135.3846,4149.2308,4121.5385
4129.7436,4115.3846,4121.5385,4136.4103,4116.4103,4120,4122.5641,4125.1282,4137.9487,4140.5128,4156.9231,4127.1795
4146.6667,4122.5641,4125.641,4144.1026,4130.7692,4126.1538,4127.1795,4126.1538,4145.1282,4144.1026,4170.7692,4143.0769
4136.4103,4109.2308,4118.4615,4138.9744,4117.9487,4120,4125.641,4124.6154,4149.2308,4141.0256,4175.8974,4134.8718
4111.2821,4098.9744,4109.7436,4124.6154,4110.7692,4120,4120.5128,4120,4140.5128,4136.4103,4168.7179,4118.9744
4107.6923,4104.6154,4105.1282,4120.5128,4117.4359,4123.0769,4121.0256,4118.4615,4134.359,4135.8974,4157.4359,4120
4119.4872,4109.7436,4111.2821,4126.1538,4114.359,4114.8718,4122.0513,4121.5385,4138.9744,4139.4872,4155.8974,4125.1282
4124.6154,4109.2308,4123.0769,4132.8205,4107.1795,4110.2564,4120,4121.5385,4142.0513,4147.1795,4167.6923,4128.7179
4127.6923,4114.359,4120.5128,4133.8462,4115.8974,4116.4103,4121.5385,4123.0769,4140.5128,4154.8718,4180,4138.4615
4121.5385,4110.2564,4107.1795,4127.6923,4113.3333,4121.0256,4124.1026,4124.6154,4138.9744,4147.6923,4170.2564,4135.8974
4112.3077,4101.0256,4107.1795,4126.6667,4095.3846,4120.5128,4121.5385,4121.5385,4137.9487,4138.4615,4156.9231,4124.6154
4125.641,4113.8462,4123.0769,4136.9231,4107.1795,4121.5385,4121.5385,4122.0513,4141.0256,4143.5897,4165.641,4132.8205
4144.6154,4125.1282,4128.7179,4145.1282,4132.8205,4121.0256,4123.0769,4124.1026,4142.0513,4147.1795,4179.4872,4143.0769
4128.7179,4111.7949,4116.4103,4136.4103,4123.0769,4118.9744,4120.5128,4116.9231,4136.9231,4134.8718,4170.7692,4128.2051
4111.7949,4106.6667,4111.7949,4128.7179,4109.2308,4122.0513,4122.0513,4114.8718,4140,4135.3846,4160.5128,4118.9744
4132.8205,4117.4359,4121.0256,4135.3846,4125.641,4127.1795,4128.2051,4123.5897,4154.359,4154.8718,4175.8974,4135.8974
4141.5385,4113.3333,4123.0769,4141.5385,4135.3846,4126.1538,4128.2051,4125.1282,4157.4359,4156.9231,4188.7179,4147.1795
4126.1538,4103.5897,4118.4615,4137.9487,4120,4122.5641,4123.0769,4118.4615,4151.7949,4145.641,4185.1282,4142.5641
4127.6923,4111.2821,4122.0513,4137.9487,4113.8462,4125.1282,4125.1282,4122.5641,4155.8974,4150.7692,4185.641,4143.0769
4133.8462,4112.3077,4123.0769,4140,4121.5385,4130.7692,4129.2308,4132.3077,4150.7692,4155.8974,4180,4142.5641
4122.5641,4103.5897,4111.2821,4130.7692,4122.5641,4126.6667,4122.5641,4125.1282,4136.9231,4141.5385,4163.5897,4130.7692
4116.4103,4108.2051,4111.2821,4129.2308,4119.4872,4114.8718,4116.4103,4114.8718,4142.5641,4132.3077,4159.4872,4119.4872
4124.6154,4111.2821,4120,4137.4359,4114.8718,4109.2308,4117.9487,4117.9487,4147.6923,4137.9487,4160.5128,4120
4127.1795,4103.5897,4113.3333,4137.4359,4111.7949,4114.8718,4121.5385,4119.4872,4136.4103,4138.4615,4151.7949,4124.1026
4124.1026,4108.2051,4106.6667,4135.3846,4117.4359,4122.0513,4117.9487,4112.8205,4132.3077,4129.7436,4149.2308,4122.5641
4122.5641,4115.3846,4109.7436,4137.9487,4125.641,4124.1026,4110.7692,4114.8718,4140,4129.2308,4159.4872,4121.5385
4120,4111.7949,4109.2308,4135.3846,4126.1538,4123.5897,4114.8718,4126.1538,4145.1282,4137.9487,4165.1282,4129.2308
4120,4112.8205,4111.7949,4134.8718,4123.0769,4124.6154,4123.5897,4126.6667,4153.8462,4145.641,4173.3333,4141.0256
4122.5641,4114.359,4118.4615,4139.4872,4123.5897,4125.1282,4124.6154,4122.5641,4159.4872,4149.2308,4182.5641,4144.6154
4118.9744,4108.2051,4113.3333,4135.8974,4122.0513,4121.5385,4119.4872,4123.5897,4148.2051,4139.4872,4170.2564,4132.3077
4111.2821,4106.1538,4106.1538,4131.2821,4122.5641,4120,4119.4872,4123.5897,4139.4872,4127.1795,4152.3077,4120
4114.359,4115.3846,4108.7179,4130.2564,4125.1282,4121.5385,4123.5897,4123.5897,4140.5128,4126.1538,4153.8462,4121.0256
4124.6154,4118.9744,4109.7436,4131.2821,4121.5385,4124.1026,4123.0769,4123.0769,4141.5385,4132.3077,4161.5385,4126.1538
4123.5897,4112.8205,4105.641,4136.4103,4120.5128,4125.641,4121.5385,4122.0513,4143.0769,4133.8462,4157.4359,4123.5897
4117.9487,4112.3077,4105.641,4139.4872,4124.6154,4125.641,4122.0513,4122.0513,4149.2308,4130.2564,4153.3333,4119.4872
4122.5641,4112.3077,4107.1795,4137.4359,4124.1026,4122.0513,4117.4359,4124.1026,4154.8718,4131.7949,4158.9744,4124.6154
4120,4110.2564,4106.6667,4133.8462,4123.0769,4120,4111.7949,4124.1026,4151.2821,4136.4103,4163.0769,4127.6923
4110.2564,4111.7949,4106.1538,4130.2564,4121.5385,4125.1282,4116.9231,4121.0256,4150.7692,4140,4167.1795,4124.6154
4113.3333,4113.8462,4102.5641,4125.1282,4113.8462,4124.6154,4123.0769,4120.5128,4158.9744,4141.5385,4172.3077,4124.6154
4116.9231,4113.3333,4093.3333,4124.1026,4113.8462,4117.9487,4121.0256,4122.5641,4150.7692,4135.3846,4167.6923,4127.1795
4110.2564,4107.1795,4091.7949,4123.5897,4122.0513,4122.0513,4120,4123.0769,4140.5128,4124.6154,4160,4127.1795
4113.3333,4108.7179,4100,4129.2308,4121.0256,4124.6154,4122.5641,4122.5641,4151.2821,4126.6667,4163.5897,4131.7949
4128.2051,4117.9487,4106.6667,4138.9744,4115.3846,4115.8974,4120.5128,4123.0769,4162.5641,4142.5641,4173.8462,4143.0769
4126.6667,4120,4105.641,4138.9744,4118.4615,4115.3846,4119.4872,4121.0256,4153.3333,4137.9487,4171.2821,4139.4872
4111.7949,4109.7436,4101.0256,4131.2821,4121.5385,4124.6154,4122.5641,4120.5128,4143.0769,4121.0256,4163.0769,4123.5897
4113.8462,4102.5641,4101.5385,4128.2051,4122.0513,4126.6667,4123.5897,4123.5897,4147.1795,4125.1282,4160.5128,4120.5128
4118.9744,4107.6923,4102.0513,4131.7949,4121.0256,4122.5641,4121.5385,4125.1282,4148.7179,4133.8462,4156.4103,4120
4112.3077,4113.3333,4102.5641,4135.3846,4121.0256,4122.0513,4118.9744,4123.5897,4149.2308,4138.4615,4159.4872,4125.641
4116.9231,4114.8718,4106.1538,4137.9487,4120.5128,4122.0513,4118.4615,4123.0769,4161.5385,4150.7692,4181.5385,4148.7179
4137.9487,4112.3077,4109.2308,4141.0256,4115.3846,4120.5128,4116.4103,4123.0769,4163.5897,4154.8718,4189.7436,4158.9744
4140.5128,4104.1026,4107.6923,4138.4615,4112.8205,4119.4872,4110.2564,4121.0256,4151.2821,4143.5897,4173.3333,4144.1026
4120,4104.6154,4103.0769,4136.4103,4112.8205,4120,4106.1538,4116.4103,4145.641,4136.9231,4162.5641,4135.8974
4117.4359,4113.3333,4097.9487,4137.9487,4115.8974,4122.5641,4109.2308,4114.8718,4149.2308,4133.8462,4167.1795,4135.8974
4124.1026,4114.8718,4091.7949,4131.7949,4118.9744,4121.5385,4112.8205,4119.4872,4149.7436,4124.1026,4170.2564,4126.6667
4116.4103,4109.7436,4087.1795,4122.5641,4113.8462,4118.4615,4109.7436,4122.0513,4145.1282,4118.4615,4165.641,4117.4359
4107.1795,4104.6154,4083.0769,4121.0256,4110.2564,4120.5128,4110.7692,4121.0256,4141.5385,4121.0256,4159.4872,4117.9487
4107.1795,4104.6154,4083.0769,4121.0256,4110.2564,4120.5128,4110.7692,4121.0256,4141.5385,4121.0256,4159.4872,4117.9487
4106.6667,4106.1538,4085.641,4123.0769,4115.8974,4124.1026,4122.0513,4123.5897,4144.1026,4124.6154,4158.9744,4122.5641
4112.3077,4114.8718,4095.8974,4131.2821,4120.5128,4124.6154,4127.6923,4127.1795,4151.2821,4135.3846,4169.7436,4128.2051
4120.5128,4117.4359,4095.8974,4140.5128,4118.4615,4127.6923,4123.5897,4124.1026,4151.2821,4141.0256,4184.1026,4135.8974
4124.6154,4111.2821,4088.7179,4133.8462,4117.9487,4129.7436,4120,4120,4149.7436,4133.8462,4183.5897,4137.4359
4122.5641,4109.7436,4091.7949,4124.6154,4112.8205,4124.6154,4120.5128,4123.0769,4153.8462,4130.2564,4173.8462,4131.2821
4122.0513,4114.359,4103.5897,4133.3333,4112.8205,4124.6154,4122.5641,4127.1795,4153.8462,4136.9231,4170.2564,4130.2564
4126.6667,4115.8974,4108.7179,4146.1538,4115.3846,4127.6923,4123.5897,4123.0769,4148.7179,4139.4872,4174.8718,4135.8974
4124.1026,4111.7949,4097.4359,4141.5385,4104.6154,4121.5385,4121.0256,4112.3077,4143.5897,4133.3333,4172.3077,4130.7692
4118.9744,4111.2821,4089.7436,4129.2308,4109.7436,4125.1282,4121.0256,4110.7692,4145.1282,4126.1538,4165.641,4121.0256
4119.4872,4111.2821,4094.359,4129.7436,4123.5897,4134.359,4123.5897,4119.4872,4155.3846,4128.7179,4174.359,4125.1282
4121.5385,4108.2051,4096.9231,4136.9231,4113.8462,4125.1282,4116.4103,4120.5128,4154.8718,4133.8462,4184.6154,4131.7949
4125.1282,4109.2308,4096.9231,4135.8974,4106.6667,4114.359,4109.7436,4113.3333,4149.7436,4135.8974,4182.0513,4136.4103
4136.9231,4116.4103,4104.1026,4135.3846,4122.5641,4121.5385,4112.8205,4114.8718,4159.4872,4146.6667,4187.1795,4151.2821
4144.6154,4120.5128,4110.7692,4144.6154,4131.2821,4124.6154,4115.8974,4122.5641,4169.7436,4156.4103,4203.0769,4160.5128
4128.7179,4112.3077,4106.6667,4144.1026,4121.5385,4118.9744,4111.7949,4123.0769,4158.9744,4147.1795,4193.3333,4147.1795
4110.2564,4105.641,4096.9231,4129.2308,4117.9487,4121.5385,4110.7692,4120,4145.641,4132.3077,4170.7692,4131.7949
4114.8718,4113.3333,4092.8205,4130.2564,4123.5897,4125.1282,4116.9231,4121.5385,4154.8718,4133.3333,4176.4103,4137.4359
4124.6154,4115.3846,4094.8718,4143.0769,4124.1026,4121.0256,4118.4615,4121.5385,4166.6667,4141.5385,4191.7949,4147.6923
4124.1026,4109.2308,4093.3333,4135.8974,4117.9487,4116.9231,4112.3077,4120.5128,4156.4103,4134.8718,4182.5641,4142.0513
4121.5385,4113.8462,4089.2308,4125.641,4117.4359,4118.9744,4112.8205,4122.0513,4145.1282,4126.1538,4168.7179,4134.359
4124.1026,4118.4615,4095.3846,4133.3333,4123.0769,4124.1026,4121.5385,4122.5641,4150.2564,4130.7692,4177.4359,4142.0513
4126.6667,4115.8974,4105.641,4137.4359,4122.0513,4125.1282,4123.0769,4124.6154,4156.4103,4136.9231,4184.1026,4154.359
4130.7692,4117.4359,4110.2564,4137.4359,4122.0513,4124.6154,4119.4872,4124.1026,4155.8974,4138.9744,4177.4359,4158.4615
4127.6923,4113.8462,4105.1282,4140.5128,4128.2051,4130.7692,4123.0769,4120.5128,4151.2821,4135.3846,4173.8462,4148.7179
4111.7949,4103.5897,4093.3333,4138.9744,4133.3333,4136.9231,4125.1282,4121.0256,4147.6923,4126.6667,4172.3077,4131.2821
4115.8974,4105.641,4094.359,4137.4359,4130.7692,4132.8205,4124.1026,4123.0769,4155.8974,4126.1538,4169.7436,4133.8462
4128.7179,4113.8462,4103.5897,4142.5641,4128.7179,4126.6667,4123.0769,4122.5641,4164.6154,4135.8974,4174.359,4148.2051
4126.1538,4113.3333,4105.1282,4144.6154,4130.7692,4125.1282,4121.5385,4123.0769,4162.0513,4140.5128,4183.5897,4146.1538
4126.6667,4112.3077,4102.0513,4142.0513,4130.2564,4127.1795,4122.5641,4124.6154,4157.9487,4137.4359,4184.6154,4144.1026
4132.8205,4113.8462,4104.1026,4140.5128,4124.1026,4129.7436,4125.1282,4123.5897,4156.4103,4139.4872,4178.9744,4154.359
4130.7692,4112.8205,4105.1282,4141.5385,4118.9744,4129.7436,4126.1538,4122.5641,4159.4872,4145.1282,4178.9744,4156.4103
4131.2821,4115.8974,4112.8205,4146.1538,4123.0769,4126.6667,4124.6154,4123.0769,4162.5641,4151.2821,4184.6154,4151.7949
4143.5897,4117.4359,4124.1026,4145.1282,4131.2821,4127.6923,4123.0769,4123.5897,4160.5128,4158.9744,4191.7949,4160
4142.0513,4111.2821,4118.4615,4141.5385,4133.8462,4127.6923,4122.0513,4125.1282,4155.3846,4154.8718,4194.359,4162.5641
4128.2051,4108.7179,4103.0769,4141.0256,4125.641,4122.5641,4122.0513,4122.0513,4155.8974,4142.0513,4189.2308,4147.1795
4125.1282,4109.7436,4097.4359,4138.4615,4117.4359,4123.5897,4122.0513,4119.4872,4155.8974,4134.8718,4180.5128,4135.3846
4119.4872,4109.2308,4098.4615,4134.8718,4126.6667,4128.7179,4120.5128,4121.0256,4151.7949,4131.7949,4180,4135.3846
4109.7436,4107.1795,4099.4872,4135.8974,4136.9231,4126.1538,4119.4872,4121.0256,4154.359,4130.2564,4185.641,4135.8974
4114.8718,4109.2308,4104.6154,4137.9487,4131.7949,4126.6667,4123.0769,4123.5897,4154.359,4135.8974,4183.0769,4135.3846
4126.1538,4109.2308,4109.2308,4136.4103,4128.2051,4134.8718,4125.641,4127.1795,4150.7692,4143.5897,4186.1538,4139.4872
4125.1282,4109.2308,4107.1795,4135.3846,4134.8718,4142.0513,4124.6154,4124.1026,4153.3333,4141.5385,4194.359,4142.0513
4127.6923,4117.9487,4106.6667,4139.4872,4141.0256,4138.9744,4128.2051,4127.1795,4157.9487,4138.9744,4195.3846,4142.0513
4136.4103,4121.5385,4111.7949,4141.0256,4134.8718,4132.3077,4134.8718,4140,4157.9487,4148.2051,4195.3846,4141.5385
4130.2564,4111.2821,4112.3077,4135.8974,4130.2564,4133.3333,4137.4359,4138.9744,4155.8974,4152.8205,4200,4138.9744
4115.3846,4106.6667,4108.7179,4136.4103,4133.8462,4136.9231,4138.4615,4127.1795,4153.3333,4141.5385,4201.5385,4140.5128
4106.6667,4109.7436,4103.5897,4134.8718,4135.8974,4137.9487,4135.8974,4124.1026,4147.6923,4123.0769,4190.7692,4134.359
4108.7179,4106.6667,4097.9487,4124.6154,4130.2564,4137.9487,4128.2051,4123.5897,4146.1538,4120,4177.9487,4116.9231
4120,4103.5897,4102.5641,4125.641,4124.6154,4131.7949,4124.1026,4122.5641,4152.8205,4135.3846,4182.0513,4121.0256
4125.1282,4106.1538,4111.7949,4133.8462,4123.0769,4125.641,4125.641,4125.1282,4155.8974,4144.1026,4191.7949,4141.5385
4123.0769,4112.3077,4111.2821,4131.7949,4123.5897,4127.1795,4124.6154,4124.1026,4149.7436,4137.4359,4189.2308,4138.9744
4132.3077,4116.9231,4112.3077,4131.2821,4127.1795,4127.6923,4121.0256,4125.641,4153.8462,4140.5128,4190.2564,4135.8974
4144.1026,4118.9744,4125.641,4141.0256,4128.7179,4125.1282,4123.0769,4133.3333,4169.7436,4161.5385,4211.2821,4162.0513
4144.6154,4114.359,4129.7436,4146.6667,4123.5897,4130.7692,4130.2564,4137.9487,4168.2051,4171.2821,4218.9744,4173.8462
4140.5128,4108.2051,4121.5385,4142.5641,4122.5641,4136.4103,4135.3846,4136.9231,4151.7949,4162.5641,4197.9487,4157.4359
4136.4103,4110.7692,4117.9487,4140,4125.641,4137.4359,4136.9231,4133.8462,4152.3077,4151.2821,4184.1026,4146.1538
4129.2308,4110.7692,4113.3333,4141.5385,4123.0769,4136.9231,4136.9231,4127.1795,4157.4359,4144.1026,4188.2051,4138.9744
4116.9231,4103.0769,4103.5897,4140.5128,4120.5128,4130.7692,4133.8462,4122.5641,4141.5385,4136.9231,4185.1282,4128.7179
4109.7436,4104.6154,4101.5385,4134.359,4122.0513,4125.1282,4126.6667,4125.641,4131.7949,4128.7179,4180.5128,4129.2308
4109.2308,4110.7692,4103.5897,4132.3077,4123.0769,4124.6154,4122.0513,4126.1538,4145.1282,4127.6923,4186.1538,4137.4359
4114.8718,4110.7692,4107.1795,4140.5128,4124.1026,4127.1795,4121.5385,4126.6667,4153.3333,4132.8205,4189.2308,4137.4359
4131.7949,4113.3333,4116.4103,4145.641,4124.1026,4129.7436,4120.5128,4127.1795,4153.8462,4145.1282,4194.359,4143.0769
4143.0769,4119.4872,4122.0513,4141.5385,4123.5897,4127.1795,4123.0769,4125.641,4160,4154.8718,4205.641,4157.4359
4132.3077,4112.3077,4114.8718,4137.9487,4123.0769,4125.1282,4126.6667,4125.1282,4158.9744,4149.2308,4203.0769,4157.9487
4121.0256,4104.1026,4106.6667,4137.9487,4123.0769,4127.1795,4125.1282,4122.5641,4148.7179,4136.9231,4195.3846,4142.5641
4117.9487,4109.2308,4106.1538,4133.3333,4124.1026,4128.2051,4123.0769,4120.5128,4147.1795,4133.3333,4193.8462,4134.359
4109.2308,4109.7436,4106.6667,4134.8718,4122.0513,4133.3333,4126.6667,4128.2051,4152.8205,4137.4359,4192.3077,4139.4872
4107.6923,4106.1538,4111.2821,4145.641,4123.0769,4139.4872,4130.2564,4133.8462,4153.3333,4137.9487,4195.3846,4138.9744
4126.6667,4111.7949,4120,4146.6667,4129.2308,4137.9487,4127.6923,4127.1795,4153.8462,4141.0256,4202.5641,4136.9231
4141.0256,4115.8974,4123.5897,4145.1282,4131.2821,4131.7949,4125.1282,4121.5385,4157.4359,4150.2564,4205.1282,4146.1538
4139.4872,4114.359,4124.1026,4153.8462,4126.6667,4130.7692,4124.6154,4127.1795,4153.8462,4155.3846,4204.1026,4155.3846
4140,4116.4103,4124.1026,4156.9231,4125.1282,4129.2308,4124.1026,4128.2051,4152.3077,4154.359,4208.2051,4156.9231
4142.5641,4119.4872,4124.6154,4152.3077,4128.7179,4125.1282,4121.5385,4123.5897,4155.3846,4153.3333,4210.7692,4151.2821
4134.8718,4112.8205,4124.1026,4155.3846,4127.1795,4125.1282,4123.5897,4123.5897,4150.2564,4150.7692,4204.1026,4142.5641
4115.8974,4103.5897,4115.8974,4152.3077,4120.5128,4129.7436,4127.6923,4122.0513,4137.4359,4139.4872,4194.8718,4135.3846
4107.1795,4104.1026,4106.6667,4138.9744,4125.1282,4136.9231,4126.6667,4120,4138.9744,4131.2821,4191.7949,4133.8462
4119.4872,4108.2051,4107.1795,4140,4135.3846,4136.4103,4124.1026,4123.0769,4151.7949,4137.4359,4199.4872,4137.9487
4126.6667,4108.2051,4109.2308,4149.7436,4133.3333,4127.1795,4125.1282,4124.6154,4153.8462,4141.0256,4202.0513,4141.0256
4121.5385,4111.7949,4111.7949,4153.3333,4126.6667,4120,4124.1026,4123.5897,4149.2308,4137.9487,4200.5128,4140
4123.5897,4115.3846,4119.4872,4154.8718,4132.8205,4126.6667,4122.5641,4127.1795,4152.8205,4142.5641,4207.6923,4137.9487
4128.2051,4111.7949,4121.0256,4156.9231,4141.0256,4138.4615,4127.6923,4136.9231,4159.4872,4153.3333,4217.4359,4145.641
4125.1282,4107.6923,4118.9744,4154.359,4133.8462,4136.4103,4128.7179,4138.9744,4161.5385,4158.9744,4214.8718,4156.4103
4124.6154,4107.1795,4122.5641,4152.8205,4122.0513,4125.1282,4123.5897,4127.6923,4155.3846,4152.3077,4206.6667,4151.7949
4118.9744,4109.2308,4116.4103,4150.2564,4122.0513,4126.1538,4127.6923,4121.0256,4141.5385,4140,4197.9487,4138.9744
4108.2051,4107.6923,4106.1538,4140,4126.1538,4137.4359,4136.9231,4126.6667,4137.9487,4136.9231,4190.7692,4135.3846
4113.3333,4103.5897,4113.3333,4136.4103,4126.1538,4142.5641,4140.5128,4131.2821,4147.6923,4139.4872,4192.3077,4138.9744
4126.6667,4106.1538,4123.0769,4147.1795,4121.5385,4135.8974,4136.9231,4130.2564,4150.2564,4139.4872,4198.9744,4137.4359
4127.1795,4111.7949,4121.5385,4156.4103,4122.5641,4127.1795,4129.2308,4128.2051,4148.7179,4146.6667,4205.641,4143.5897
4121.5385,4113.3333,4117.9487,4154.8718,4127.6923,4121.5385,4123.5897,4126.6667,4146.6667,4151.7949,4208.2051,4149.7436
4122.0513,4114.359,4116.9231,4152.8205,4134.359,4122.5641,4122.5641,4123.5897,4148.2051,4140,4206.1538,4141.0256
4123.5897,4115.3846,4117.4359,4154.359,4140,4131.2821,4129.7436,4125.1282,4151.7949,4134.359,4203.5897,4138.4615
4124.6154,4114.359,4120,4156.4103,4141.5385,4135.8974,4136.9231,4125.641,4146.6667,4142.5641,4201.0256,4144.1026
4127.6923,4113.8462,4121.0256,4155.8974,4134.359,4128.2051,4131.2821,4121.5385,4141.5385,4140.5128,4199.4872,4140.5128
4135.8974,4118.9744,4121.5385,4157.4359,4129.7436,4121.0256,4127.6923,4120.5128,4145.641,4132.8205,4202.5641,4141.5385
4143.5897,4118.9744,4127.6923,4159.4872,4134.359,4123.5897,4133.3333,4124.1026,4152.3077,4142.5641,4208.7179,4155.3846
4135.8974,4116.4103,4126.1538,4156.4103,4135.8974,4125.641,4132.3077,4125.641,4148.7179,4150.2564,4204.6154,4157.4359
4122.0513,4117.4359,4118.4615,4152.3077,4128.7179,4121.5385,4123.0769,4124.6154,4141.5385,4142.0513,4194.359,4142.5641
4122.5641,4114.359,4120,4151.7949,4123.0769,4119.4872,4122.0513,4126.1538,4141.5385,4135.8974,4194.8718,4137.4359
4123.5897,4114.359,4117.9487,4152.8205,4124.1026,4115.3846,4126.6667,4125.641,4143.0769,4138.9744,4199.4872,4139.4872
4118.9744,4114.359,4109.2308,4148.2051,4125.1282,4111.7949,4126.1538,4122.5641,4142.5641,4138.9744,4192.8205,4133.3333
4114.8718,4113.8462,4105.641,4144.1026,4123.5897,4114.8718,4123.5897,4121.5385,4136.9231,4135.3846,4183.0769,4126.6667
4111.7949,4116.9231,4107.6923,4146.6667,4124.1026,4122.0513,4124.6154,4128.2051,4135.3846,4134.8718,4187.1795,4130.7692
4117.4359,4118.9744,4112.8205,4152.8205,4127.6923,4125.1282,4128.2051,4135.3846,4143.5897,4138.4615,4205.1282,4143.0769
4135.3846,4120,4118.9744,4155.3846,4128.7179,4123.0769,4126.1538,4136.9231,4146.1538,4145.641,4215.3846,4150.7692
4138.4615,4122.0513,4118.9744,4153.8462,4125.641,4121.5385,4121.0256,4135.8974,4141.0256,4148.2051,4208.7179,4150.7692
4124.6154,4118.4615,4117.9487,4151.2821,4127.6923,4121.5385,4123.0769,4129.2308,4142.5641,4142.0513,4208.2051,4151.2821
4120,4112.3077,4117.4359,4150.7692,4127.1795,4123.0769,4126.1538,4128.7179,4145.641,4131.7949,4209.2308,4147.1795
4124.6154,4115.8974,4111.2821,4152.8205,4123.5897,4128.7179,4125.641,4131.2821,4142.0513,4127.1795,4202.5641,4140.5128
4132.8205,4122.5641,4113.3333,4154.8718,4126.1538,4129.2308,4131.2821,4127.1795,4147.6923,4133.3333,4209.2308,4147.1795
4135.8974,4117.4359,4123.0769,4154.359,4124.6154,4121.0256,4132.3077,4123.5897,4156.9231,4140.5128,4215.3846,4154.8718
4129.7436,4115.8974,4120.5128,4152.3077,4117.9487,4117.4359,4124.1026,4124.1026,4153.3333,4137.4359,4202.5641,4144.1026
4132.3077,4124.1026,4115.8974,4153.3333,4126.6667,4124.1026,4127.1795,4130.7692,4152.3077,4135.8974,4203.5897,4142.0513
4144.6154,4123.5897,4127.6923,4158.4615,4138.9744,4126.1538,4134.8718,4137.9487,4156.4103,4148.2051,4222.5641,4156.4103
4148.7179,4118.9744,4137.4359,4157.4359,4133.3333,4123.0769,4129.7436,4138.9744,4152.3077,4149.2308,4215.8974,4155.8974
4139.4872,4120.5128,4139.4872,4153.3333,4131.2821,4123.5897,4127.1795,4130.2564,4154.8718,4140,4199.4872,4146.6667
4129.7436,4119.4872,4142.0513,4155.8974,4136.9231,4129.2308,4136.9231,4125.641,4158.9744,4141.0256,4200.5128,4148.2051
