"AF3","F7","F3","FC5","T7","P7","O1","O2","FC6","F4","F8","AF4"
4104.1026,4106.1538,4119.4872,4091.7949,4103.0769,4118.4615,4118.9744,4126.1538,4092.3077,4113.8462,4105.1282,4107.6923
4129.7436,4109.7436,4130.2564,4096.9231,4117.9487,4125.641,4126.6667,4135.3846,4103.0769,4128.7179,4117.9487,4116.4103
4146.6667,4116.4103,4140,4108.2051,4110.2564,4125.641,4129.2308,4132.3077,4111.7949,4139.4872,4127.1795,4125.641
4112.8205,4111.2821,4130.7692,4101.5385,4080.5128,4117.9487,4117.9487,4117.9487,4095.8974,4126.1538,4111.7949,4111.7949
4093.3333,4111.7949,4128.2051,4099.4872,4107.1795,4126.1538,4120.5128,4118.9744,4091.2821,4123.5897,4112.8205,4106.1538
4124.6154,4121.0256,4142.0513,4117.9487,4162.0513,4145.641,4136.9231,4131.7949,4108.2051,4137.9487,4138.4615,4127.1795
4148.2051,4123.0769,4136.9231,4117.4359,4143.5897,4143.5897,4136.4103,4129.2308,4106.6667,4140,4145.1282,4132.8205
4135.3846,4117.9487,4121.0256,4103.5897,4124.1026,4136.9231,4131.2821,4122.5641,4093.3333,4131.7949,4133.8462,4122.5641
4115.3846,4110.2564,4124.6154,4107.1795,4129.7436,4138.9744,4133.3333,4125.1282,4097.9487,4129.2308,4130.7692,4124.6154
4098.9744,4104.1026,4118.9744,4100.5128,4067.6923,4117.4359,4115.8974,4116.4103,4092.3077,4118.9744,4114.8718,4112.8205
4098.4615,4107.1795,4109.2308,4090.7692,4044.6154,4103.5897,4104.1026,4109.2308,4082.5641,4117.4359,4104.6154,4103.0769
4123.0769,4116.9231,4132.3077,4108.7179,4133.8462,4131.7949,4129.2308,4129.2308,4100,4139.4872,4127.6923,4126.6667
4138.4615,4114.359,4136.4103,4161.0256,4139.4872,4139.4872,4133.8462,4130.2564,4102.5641,4143.5897,4149.2308,4141.5385
4121.0256,4110.2564,4124.6154,4159.4872,4123.5897,4135.8974,4123.5897,4124.1026,4094.8718,4130.2564,4137.4359,4125.641
4110.7692,4108.7179,4117.9487,4154.8718,4107.1795,4127.1795,4120,4120,4091.2821,4121.5385,4130.2564,4119.4872
4129.7436,4115.3846,4127.6923,4157.9487,4128.2051,4127.6923,4124.6154,4129.2308,4095.3846,4133.3333,4138.9744,4130.2564
4136.4103,4120.5128,4137.9487,4150.2564,4146.1538,4139.4872,4130.2564,4138.9744,4105.1282,4143.0769,4146.1538,4135.3846
4121.5385,4116.4103,4129.2308,4136.4103,4125.641,4138.4615,4133.8462,4132.3077,4106.6667,4135.8974,4138.9744,4128.7179
4122.5641,4124.1026,4128.2051,4149.2308,4129.2308,4138.4615,4138.9744,4133.3333,4106.1538,4135.8974,4139.4872,4131.2821
4121.0256,4127.1795,4133.3333,4162.0513,4121.5385,4141.0256,4136.4103,4137.4359,4103.5897,4139.4872,4144.6154,4132.3077
4105.641,4113.8462,4113.8462,4149.2308,4077.9487,4128.7179,4121.5385,4124.1026,4091.2821,4124.6154,4134.359,4115.3846
4112.8205,4112.3077,4104.1026,4149.2308,4095.3846,4127.1795,4119.4872,4123.0769,4092.3077,4119.4872,4129.7436,4111.2821
4135.8974,4120,4130.7692,4174.359,4157.4359,4146.6667,4134.8718,4138.9744,4111.2821,4138.9744,4145.1282,4130.2564
4130.2564,4118.4615,4137.9487,4179.4872,4131.7949,4138.4615,4131.2821,4131.2821,4110.7692,4141.5385,4145.1282,4130.2564
4107.1795,4112.3077,4117.4359,4157.4359,4081.0256,4115.3846,4115.3846,4114.359,4092.8205,4122.0513,4123.0769,4107.6923
4111.2821,4116.4103,4122.0513,4153.3333,4116.9231,4130.2564,4125.1282,4122.5641,4098.9744,4122.5641,4116.9231,4110.7692
4123.0769,4119.4872,4125.1282,4168.7179,4129.7436,4144.6154,4133.3333,4129.2308,4108.2051,4131.2821,4123.5897,4121.5385
4117.4359,4114.8718,4108.2051,4170.2564,4081.5385,4126.6667,4120.5128,4119.4872,4100.5128,4128.2051,4125.1282,4114.359
4112.8205,4116.4103,4112.8205,4165.1282,4091.7949,4122.5641,4124.1026,4121.0256,4093.3333,4126.1538,4117.4359,4106.6667
4122.0513,4119.4872,4127.1795,4175.8974,4142.5641,4141.0256,4142.0513,4130.7692,4097.4359,4127.6923,4111.2821,4112.3077
4126.6667,4119.4872,4124.1026,4186.6667,4131.7949,4143.0769,4138.4615,4127.1795,4105.1282,4130.7692,4123.5897,4119.4872
4117.9487,4117.9487,4118.9744,4187.1795,4096.4103,4127.1795,4123.0769,4121.0256,4105.641,4131.2821,4133.8462,4117.4359
4108.7179,4116.4103,4118.4615,4187.6923,4105.1282,4123.0769,4121.0256,4124.1026,4101.5385,4128.2051,4132.8205,4113.3333
4103.5897,4115.8974,4110.7692,4178.9744,4117.4359,4125.641,4123.5897,4123.5897,4092.3077,4123.0769,4128.7179,4109.7436
4110.2564,4116.4103,4104.1026,4167.1795,4116.4103,4124.1026,4124.1026,4121.5385,4091.2821,4124.1026,4127.6923,4110.7692
4106.6667,4113.8462,4110.7692,4170.7692,4115.3846,4125.641,4124.6154,4123.5897,4100.5128,4124.6154,4129.7436,4109.2308
4092.3077,4113.8462,4124.6154,4171.2821,4122.0513,4135.8974,4125.641,4125.641,4105.641,4124.6154,4134.359,4110.7692
4096.9231,4112.3077,4123.0769,4156.4103,4108.7179,4137.4359,4125.641,4122.5641,4095.8974,4124.6154,4127.1795,4110.2564
4105.641,4107.6923,4102.5641,4146.1538,4075.3846,4124.1026,4122.5641,4115.8974,4074.359,4107.6923,4104.6154,4090.7692
4104.1026,4112.3077,4102.0513,4151.2821,4095.3846,4128.2051,4129.7436,4122.0513,4074.359,4102.5641,4101.5385,4083.0769
4095.3846,4120,4124.1026,4157.9487,4150.2564,4146.6667,4142.0513,4135.3846,4089.7436,4119.4872,4115.3846,4092.8205
4089.7436,4115.8974,4129.7436,4153.3333,4140.5128,4145.1282,4138.9744,4131.2821,4091.7949,4127.1795,4121.5385,4089.7436
4095.8974,4106.6667,4115.3846,4140.5128,4093.8462,4129.2308,4124.1026,4118.4615,4089.7436,4119.4872,4119.4872,4081.0256
4112.8205,4115.8974,4111.2821,4140,4106.6667,4124.1026,4121.5385,4121.0256,4098.4615,4118.4615,4121.5385,4086.1538
4115.3846,4123.0769,4111.7949,4150.7692,4138.4615,4131.2821,4129.7436,4127.1795,4097.9487,4123.0769,4127.1795,4094.359
4105.1282,4112.3077,4106.6667,4152.3077,4136.4103,4136.4103,4132.3077,4125.641,4087.1795,4120,4122.0513,4091.2821
4110.7692,4110.7692,4115.3846,4154.359,4126.6667,4133.8462,4133.8462,4128.2051,4091.2821,4120.5128,4119.4872,4088.2051
4113.8462,4113.8462,4124.1026,4164.6154,4120,4128.2051,4134.8718,4129.2308,4096.4103,4125.1282,4124.1026,4091.7949
4108.2051,4111.7949,4116.4103,4161.0256,4119.4872,4127.6923,4132.8205,4121.0256,4087.6923,4124.6154,4120.5128,4092.3077
4109.7436,4114.8718,4116.4103,4154.359,4121.5385,4132.3077,4131.2821,4122.0513,4089.2308,4123.5897,4114.8718,4089.7436
4127.6923,4124.6154,4141.5385,4175.3846,4131.2821,4148.2051,4145.641,4140,4110.7692,4141.0256,4129.7436,4104.6154
4152.8205,4133.3333,4165.1282,4203.5897,4158.9744,4170.7692,4168.2051,4156.4103,4130.2564,4166.1538,4158.4615,4134.359
4158.9744,4127.1795,4170.2564,4205.1282,4185.641,4184.1026,4176.4103,4161.0256,4137.9487,4174.8718,4171.2821,4144.1026
4152.3077,4123.5897,4168.2051,4197.9487,4172.3077,4181.5385,4173.3333,4162.0513,4143.5897,4173.8462,4171.7949,4137.9487
4155.3846,4127.6923,4163.5897,4201.0256,4154.8718,4174.359,4172.3077,4162.0513,4143.5897,4172.8205,4173.3333,4142.0513
4153.3333,4117.4359,4148.7179,4191.7949,4147.6923,4163.5897,4165.641,4150.7692,4130.2564,4162.5641,4164.6154,4138.4615
4130.7692,4111.2821,4133.8462,4172.3077,4125.1282,4151.2821,4153.3333,4134.8718,4117.4359,4145.1282,4144.1026,4117.4359
4117.4359,4118.9744,4138.4615,4168.7179,4141.5385,4157.4359,4157.4359,4140.5128,4121.5385,4145.641,4139.4872,4116.4103
4123.5897,4120,4145.1282,4167.1795,4183.0769,4169.2308,4169.7436,4151.2821,4122.5641,4152.8205,4145.641,4127.1795
4124.1026,4114.359,4128.2051,4154.8718,4178.9744,4170.2564,4168.2051,4143.0769,4108.2051,4142.5641,4138.9744,4114.359
4112.3077,4112.8205,4116.4103,4151.2821,4161.5385,4167.6923,4164.1026,4141.0256,4100.5128,4134.359,4137.4359,4104.6154
4108.7179,4115.8974,4130.7692,4157.9487,4169.2308,4169.7436,4169.7436,4153.3333,4111.2821,4145.1282,4144.6154,4115.3846
4127.1795,4116.4103,4144.1026,4160.5128,4166.6667,4169.2308,4171.2821,4151.7949,4124.1026,4155.8974,4144.6154,4118.4615
4144.1026,4118.9744,4140.5128,4164.1026,4155.8974,4163.0769,4163.5897,4140.5128,4125.1282,4150.7692,4144.1026,4114.8718
4143.0769,4124.1026,4142.5641,4174.359,4171.7949,4159.4872,4159.4872,4146.6667,4125.641,4154.359,4156.4103,4129.2308
4134.359,4119.4872,4151.2821,4176.9231,4157.4359,4155.8974,4160,4153.3333,4126.6667,4164.1026,4161.5385,4145.1282
4123.5897,4115.8974,4143.5897,4164.6154,4112.8205,4148.7179,4154.8718,4143.5897,4120,4151.7949,4148.2051,4129.7436
4120,4120,4131.2821,4158.9744,4120.5128,4145.1282,4151.2821,4140.5128,4117.4359,4137.9487,4144.6154,4115.8974
4133.3333,4121.5385,4137.4359,4171.2821,4170.7692,4153.8462,4161.0256,4151.2821,4129.7436,4150.2564,4156.4103,4131.7949
4143.5897,4115.8974,4146.1538,4177.4359,4183.0769,4161.0256,4170.7692,4154.359,4138.4615,4162.5641,4158.4615,4142.0513
4133.8462,4111.2821,4144.1026,4171.7949,4161.0256,4156.9231,4167.1795,4147.6923,4138.9744,4157.9487,4153.3333,4130.2564
4123.0769,4113.8462,4141.0256,4165.1282,4156.9231,4154.8718,4160.5128,4151.7949,4137.4359,4152.8205,4150.7692,4121.0256
4116.9231,4113.3333,4138.4615,4159.4872,4156.4103,4154.359,4155.3846,4149.2308,4129.2308,4148.7179,4141.5385,4121.0256
4116.4103,4112.8205,4137.4359,4156.9231,4155.3846,4152.8205,4152.3077,4138.9744,4130.2564,4146.6667,4142.0513,4125.1282
4116.4103,4112.8205,4137.4359,4156.9231,4155.3846,4152.8205,4152.3077,4138.9744,4130.2564,4146.6667,4142.0513,4125.1282
4118.9744,4114.8718,4139.4872,4156.4103,4149.7436,4151.7949,4152.8205,4139.4872,4130.2564,4147.1795,4150.7692,4125.641
4122.5641,4112.8205,4138.4615,4160,4149.7436,4151.7949,4153.8462,4138.4615,4118.4615,4145.641,4144.1026,4120.5128
4128.7179,4118.9744,4141.5385,4171.2821,4183.0769,4156.4103,4154.359,4136.9231,4122.0513,4150.7692,4143.0769,4126.1538
4132.3077,4126.1538,4140.5128,4168.7179,4188.2051,4155.8974,4153.3333,4138.9744,4135.3846,4153.3333,4151.7949,4132.8205
4134.8718,4121.0256,4141.0256,4158.9744,4165.641,4150.7692,4151.2821,4136.9231,4134.359,4151.2821,4149.7436,4129.7436
4140.5128,4120,4152.8205,4168.7179,4186.1538,4158.4615,4153.3333,4137.4359,4136.4103,4157.9487,4150.7692,4135.8974
4144.1026,4121.0256,4151.2821,4176.4103,4206.6667,4164.6154,4154.359,4141.0256,4145.1282,4162.0513,4158.4615,4147.1795
4136.9231,4121.0256,4136.9231,4167.6923,4180,4155.3846,4151.7949,4138.4615,4138.9744,4152.8205,4150.7692,4145.1282
4140,4120,4142.0513,4168.2051,4167.1795,4152.8205,4154.359,4139.4872,4135.3846,4156.4103,4135.3846,4154.359
4164.1026,4116.4103,4160,4173.8462,4172.3077,4150.7692,4149.2308,4134.8718,4143.0769,4173.8462,4133.8462,4193.3333
4164.6154,4114.8718,4158.9744,4167.6923,4156.9231,4138.9744,4137.4359,4122.0513,4140.5128,4168.2051,4138.9744,4204.6154
4140,4115.3846,4146.6667,4163.5897,4155.3846,4142.0513,4142.0513,4129.7436,4132.3077,4151.7949,4137.9487,4163.5897
4144.6154,4118.9744,4149.7436,4168.7179,4168.7179,4152.8205,4151.2821,4142.5641,4130.2564,4160.5128,4139.4872,4157.9487
4177.9487,4117.4359,4163.5897,4169.7436,4174.8718,4151.7949,4150.2564,4135.3846,4137.9487,4176.4103,4153.8462,4209.7436
4175.3846,4111.7949,4158.4615,4157.4359,4164.1026,4150.2564,4146.6667,4128.7179,4148.7179,4169.7436,4185.641,4233.3333
4161.5385,4124.6154,4150.7692,4157.9487,4158.4615,4149.7436,4142.5641,4136.9231,4150.2564,4168.7179,4233.3333,4246.1538
4188.2051,4130.2564,4168.2051,4180.5128,4167.1795,4141.5385,4135.8974,4136.4103,4143.5897,4197.4359,4282.5641,4324.1026
4210.2564,4116.9231,4188.7179,4185.1282,4164.6154,4137.4359,4134.359,4125.641,4141.0256,4212.8205,4322.5641,4390.7692
4212.8205,4119.4872,4195.8974,4174.8718,4157.4359,4140.5128,4134.359,4124.6154,4132.8205,4203.5897,4367.6923,4391.2821
4222.5641,4129.7436,4202.5641,4177.4359,4143.5897,4135.3846,4123.0769,4118.4615,4127.6923,4208.2051,4440.5128,4411.2821
4211.2821,4121.0256,4197.4359,4176.4103,4119.4872,4123.5897,4117.4359,4108.7179,4136.4103,4215.8974,4509.2308,4448.2051
4192.3077,4111.7949,4181.5385,4165.641,4116.9231,4122.0513,4123.0769,4113.8462,4137.4359,4210.7692,4545.641,4457.4359
4204.6154,4118.9744,4186.6667,4165.1282,4138.9744,4131.7949,4129.7436,4125.1282,4126.6667,4208.2051,4582.0513,4468.2051
4219.4872,4126.1538,4202.0513,4168.2051,4147.1795,4137.9487,4132.3077,4126.1538,4131.2821,4217.9487,4637.9487,4499.4872
4233.3333,4128.2051,4202.5641,4170.7692,4143.0769,4136.9231,4133.8462,4123.5897,4143.5897,4230.2564,4672.3077,4529.2308
4238.4615,4131.2821,4198.4615,4173.3333,4148.7179,4137.4359,4137.4359,4124.1026,4132.8205,4222.0513,4667.1795,4527.6923
4200,4121.5385,4197.9487,4170.2564,4142.5641,4138.9744,4137.9487,4121.0256,4120.5128,4204.6154,4666.1538,4505.641
4180.5128,4116.4103,4190.2564,4167.6923,4124.6154,4138.4615,4128.2051,4116.9231,4120,4201.5385,4672.3077,4504.1026
4202.0513,4127.1795,4180,4164.6154,4126.6667,4137.4359,4123.0769,4112.8205,4116.9231,4202.5641,4670.7692,4513.8462
4196.9231,4129.7436,4190.7692,4162.0513,4146.6667,4138.4615,4132.8205,4117.4359,4119.4872,4206.6667,4678.9744,4510.2564
4180.5128,4125.1282,4206.1538,4168.2051,4153.3333,4142.0513,4141.5385,4127.6923,4130.7692,4221.0256,4689.2308,4512.3077
4192.8205,4124.1026,4202.5641,4173.8462,4140,4142.0513,4137.4359,4124.6154,4135.8974,4225.1282,4686.6667,4521.0256
4189.7436,4122.0513,4197.9487,4170.2564,4128.7179,4137.9487,4135.3846,4117.9487,4134.359,4215.3846,4675.8974,4514.8718
4055.3846,4117.9487,4127.6923,4105.641,4104.1026,4127.6923,4132.8205,4130.7692,4120.5128,4136.9231,4132.8205,4140
4049.7436,4112.3077,4120,4107.1795,4101.5385,4117.4359,4131.7949,4126.6667,4122.5641,4131.7949,4134.8718,4137.9487
4048.7179,4111.2821,4124.6154,4105.1282,4122.0513,4131.2821,4135.8974,4125.641,4123.0769,4129.7436,4137.4359,4137.9487
4048.7179,4114.359,4123.0769,4105.641,4128.7179,4140.5128,4137.9487,4122.5641,4112.3077,4126.1538,4125.641,4131.2821
4047.1795,4116.4103,4115.8974,4105.641,4101.5385,4125.641,4131.7949,4118.4615,4106.6667,4124.1026,4122.5641,4127.6923
4048.7179,4118.4615,4126.1538,4107.6923,4097.4359,4121.5385,4132.8205,4123.5897,4112.3077,4127.6923,4136.4103,4133.3333
4053.3333,4117.9487,4137.4359,4113.8462,4125.1282,4129.7436,4136.4103,4128.7179,4114.8718,4130.2564,4136.4103,4136.4103
4056.4103,4113.3333,4129.2308,4112.3077,4130.2564,4128.7179,4131.7949,4126.1538,4112.8205,4125.641,4125.641,4134.359
4064.1026,4112.3077,4128.2051,4110.7692,4116.4103,4129.7436,4131.2821,4130.7692,4118.4615,4128.2051,4133.8462,4135.8974
4064.6154,4116.9231,4140,4117.9487,4122.5641,4138.9744,4138.9744,4138.4615,4123.5897,4140,4143.5897,4137.9487
4051.7949,4117.4359,4134.8718,4118.9744,4131.2821,4138.9744,4142.5641,4134.359,4117.9487,4137.9487,4134.8718,4134.8718
4045.641,4111.7949,4121.0256,4111.2821,4114.8718,4129.7436,4135.8974,4125.641,4108.7179,4124.6154,4124.6154,4128.7179
4043.5897,4111.2821,4121.0256,4109.7436,4093.8462,4123.5897,4129.7436,4122.0513,4105.641,4122.0513,4121.5385,4120
4033.8462,4114.359,4120.5128,4108.2051,4095.8974,4121.5385,4131.7949,4122.5641,4106.1538,4125.1282,4118.9744,4115.3846
4037.4359,4114.359,4117.9487,4105.1282,4116.4103,4128.2051,4137.4359,4126.1538,4107.1795,4124.6154,4117.4359,4123.0769
4054.8718,4117.4359,4126.1538,4110.2564,4129.2308,4137.4359,4138.9744,4127.1795,4107.6923,4130.7692,4121.5385,4135.8974
4062.0513,4117.4359,4128.7179,4111.7949,4121.5385,4134.359,4135.3846,4126.1538,4108.7179,4140,4125.641,4140
4060.5128,4116.4103,4124.6154,4105.1282,4116.4103,4126.6667,4135.3846,4135.3846,4111.7949,4140.5128,4124.1026,4137.4359
4058.4615,4118.9744,4128.7179,4105.641,4120,4124.1026,4136.9231,4145.1282,4113.3333,4138.4615,4120.5128,4133.3333
4053.8462,4114.8718,4132.8205,4109.7436,4112.8205,4128.7179,4138.4615,4138.9744,4111.7949,4140,4120.5128,4130.2564
4050.7692,4113.8462,4127.6923,4109.2308,4108.2051,4133.8462,4140,4130.7692,4112.3077,4142.0513,4123.0769,4136.4103
4051.7949,4118.9744,4124.6154,4108.7179,4118.9744,4138.4615,4140,4129.7436,4113.8462,4138.4615,4118.9744,4139.4872
4045.1282,4117.4359,4123.5897,4107.6923,4111.7949,4136.4103,4138.9744,4121.5385,4107.1795,4128.2051,4106.6667,4126.1538
4035.3846,4112.3077,4117.4359,4105.1282,4095.3846,4129.2308,4137.9487,4114.359,4098.9744,4119.4872,4100,4117.9487
4034.8718,4111.7949,4120.5128,4099.4872,4106.6667,4129.2308,4138.4615,4122.0513,4104.6154,4123.5897,4108.7179,4124.6154
4037.9487,4114.359,4124.6154,4095.3846,4110.2564,4128.7179,4136.4103,4126.1538,4109.2308,4126.1538,4113.8462,4121.0256
4044.6154,4115.3846,4119.4872,4100,4095.3846,4126.1538,4134.359,4120,4108.7179,4126.1538,4112.3077,4116.9231
4057.4359,4120,4125.641,4115.3846,4111.2821,4131.2821,4138.9744,4123.0769,4116.9231,4140.5128,4124.6154,4133.3333
4063.0769,4122.0513,4142.5641,4125.641,4145.641,4138.9744,4141.5385,4128.7179,4127.1795,4150.2564,4137.9487,4148.7179
4057.9487,4116.4103,4144.6154,4117.4359,4138.9744,4136.4103,4136.9231,4124.6154,4126.6667,4144.6154,4130.2564,4150.2564
4060.5128,4113.8462,4131.7949,4105.1282,4116.9231,4127.6923,4136.4103,4129.2308,4124.1026,4147.6923,4121.0256,4146.1538
4062.5641,4116.9231,4127.1795,4106.1538,4124.1026,4126.1538,4140.5128,4137.9487,4131.7949,4156.9231,4127.6923,4145.641
4049.2308,4114.359,4126.6667,4108.2051,4121.0256,4123.5897,4133.8462,4127.6923,4127.1795,4144.1026,4123.5897,4135.8974
4046.1538,4111.2821,4123.5897,4106.1538,4106.6667,4120.5128,4124.1026,4116.4103,4108.2051,4129.7436,4105.641,4120
4058.4615,4115.8974,4131.7949,4117.4359,4121.5385,4123.5897,4130.7692,4121.0256,4110.2564,4139.4872,4108.7179,4126.6667
4054.8718,4121.0256,4142.0513,4123.5897,4134.359,4125.641,4139.4872,4124.1026,4122.0513,4144.1026,4123.0769,4142.0513
4046.1538,4118.4615,4138.9744,4109.2308,4122.5641,4123.0769,4132.8205,4118.9744,4116.4103,4131.7949,4121.0256,4132.8205
4061.0256,4116.4103,4133.3333,4108.7179,4124.6154,4125.1282,4129.7436,4121.0256,4114.8718,4129.7436,4118.4615,4124.1026
4075.3846,4121.5385,4138.9744,4124.1026,4130.7692,4128.2051,4137.9487,4126.6667,4126.1538,4141.5385,4127.1795,4138.9744
4067.6923,4120.5128,4141.0256,4126.6667,4119.4872,4126.6667,4138.4615,4127.6923,4127.1795,4144.1026,4132.3077,4145.641
4056.4103,4121.0256,4138.9744,4122.0513,4128.2051,4132.8205,4135.3846,4130.2564,4127.1795,4137.4359,4135.3846,4139.4872
4053.3333,4120.5128,4142.0513,4123.5897,4143.5897,4138.4615,4137.9487,4129.2308,4133.3333,4137.4359,4136.4103,4144.1026
4055.3846,4115.3846,4142.0513,4125.641,4137.4359,4130.7692,4134.8718,4122.5641,4126.1538,4137.9487,4126.1538,4147.6923
4058.4615,4117.4359,4137.4359,4125.1282,4132.8205,4123.5897,4127.1795,4117.9487,4111.7949,4128.2051,4120.5128,4134.8718
4062.0513,4120.5128,4135.8974,4124.1026,4135.3846,4126.6667,4124.6154,4119.4872,4110.2564,4124.6154,4122.5641,4122.0513
4058.9744,4119.4872,4139.4872,4121.5385,4126.1538,4126.1538,4126.1538,4120.5128,4110.7692,4132.8205,4122.5641,4126.1538
4046.1538,4118.9744,4136.9231,4117.9487,4117.4359,4118.9744,4125.1282,4122.0513,4107.6923,4133.3333,4121.0256,4128.7179
4047.1795,4116.9231,4129.7436,4116.9231,4127.1795,4121.5385,4123.0769,4125.641,4114.359,4131.7949,4122.5641,4121.5385
4061.0256,4116.4103,4134.359,4120.5128,4142.5641,4131.7949,4128.2051,4129.2308,4120.5128,4137.9487,4124.1026,4125.641
4056.9231,4116.4103,4137.4359,4124.1026,4140.5128,4131.2821,4133.3333,4129.2308,4114.359,4136.9231,4126.6667,4132.8205
4040.5128,4114.359,4129.2308,4121.0256,4126.6667,4123.0769,4129.2308,4125.1282,4107.1795,4125.641,4124.1026,4122.5641
4040.5128,4114.359,4129.2308,4121.0256,4126.6667,4123.0769,4129.2308,4125.1282,4107.1795,4125.641,4124.1026,4122.5641
4038.4615,4115.8974,4122.5641,4118.4615,4124.1026,4123.5897,4123.5897,4123.0769,4109.2308,4121.5385,4117.9487,4115.3846
4048.2051,4117.4359,4125.1282,4120.5128,4127.6923,4125.1282,4123.5897,4123.0769,4115.8974,4128.7179,4121.0256,4125.1282
4057.9487,4114.359,4124.6154,4123.5897,4120,4120,4121.5385,4120,4115.3846,4130.7692,4122.5641,4129.2308
4059.4872,4114.359,4121.5385,4124.6154,4118.9744,4118.9744,4118.4615,4115.3846,4109.7436,4127.6923,4110.2564,4122.0513
4053.8462,4121.0256,4127.6923,4123.0769,4135.3846,4124.1026,4120,4118.4615,4106.6667,4131.2821,4105.641,4121.0256
4047.6923,4121.0256,4135.3846,4121.0256,4150.2564,4124.1026,4122.0513,4125.641,4111.7949,4138.4615,4115.3846,4122.5641
4044.6154,4110.7692,4135.8974,4120,4152.8205,4122.5641,4120.5128,4124.6154,4117.9487,4136.4103,4115.8974,4122.0513
4054.359,4113.8462,4135.3846,4122.0513,4150.7692,4130.2564,4121.0256,4121.0256,4120.5128,4132.3077,4112.3077,4127.6923
4073.3333,4124.6154,4139.4872,4124.6154,4146.6667,4136.9231,4126.6667,4123.5897,4128.2051,4142.0513,4123.5897,4142.5641
4070.2564,4123.0769,4135.8974,4125.1282,4136.9231,4130.7692,4128.2051,4124.1026,4126.1538,4144.6154,4129.2308,4143.5897
4047.6923,4115.3846,4127.1795,4124.1026,4123.5897,4122.0513,4123.0769,4122.0513,4113.8462,4130.2564,4113.3333,4127.6923
4046.6667,4115.8974,4127.1795,4125.1282,4125.1282,4123.5897,4123.5897,4126.6667,4115.3846,4130.2564,4105.641,4121.0256
4056.4103,4122.0513,4127.1795,4125.641,4131.7949,4123.0769,4121.0256,4124.6154,4119.4872,4134.359,4110.7692,4121.0256
4043.0769,4118.9744,4124.1026,4122.5641,4129.2308,4119.4872,4114.359,4114.359,4111.2821,4121.0256,4108.7179,4112.3077
4034.359,4116.9231,4125.1282,4121.0256,4132.8205,4122.0513,4116.9231,4115.8974,4107.6923,4111.7949,4109.7436,4105.641
4047.6923,4122.5641,4127.6923,4121.5385,4147.1795,4124.1026,4124.1026,4121.5385,4110.7692,4121.5385,4115.3846,4104.6154
4051.2821,4121.5385,4128.7179,4120.5128,4151.7949,4126.6667,4122.5641,4120,4111.7949,4125.1282,4111.2821,4101.0256
4051.2821,4118.9744,4128.7179,4119.4872,4152.3077,4134.8718,4125.1282,4121.5385,4115.8974,4120.5128,4111.7949,4103.5897
4061.0256,4121.0256,4124.1026,4122.5641,4153.3333,4138.9744,4132.8205,4128.2051,4120.5128,4123.5897,4117.9487,4111.7949
4054.8718,4119.4872,4120,4125.1282,4138.4615,4131.2821,4131.7949,4126.1538,4117.9487,4125.1282,4111.2821,4110.2564
4035.3846,4114.359,4122.0513,4117.9487,4123.5897,4122.5641,4122.5641,4121.5385,4115.8974,4121.0256,4103.0769,4103.0769
4035.8974,4114.8718,4124.6154,4111.2821,4132.3077,4125.1282,4122.0513,4128.7179,4116.4103,4122.0513,4115.3846,4107.1795
4052.8205,4120,4123.5897,4116.4103,4147.1795,4131.2821,4134.359,4136.9231,4111.7949,4122.5641,4125.641,4109.2308
4054.359,4122.0513,4122.0513,4119.4872,4141.5385,4129.7436,4135.3846,4131.2821,4108.2051,4115.8974,4115.3846,4101.0256
4038.9744,4120.5128,4123.5897,4116.4103,4137.4359,4124.6154,4127.1795,4121.5385,4109.7436,4114.359,4107.1795,4098.9744
4038.4615,4118.9744,4123.5897,4118.9744,4152.8205,4125.641,4127.6923,4121.5385,4108.2051,4115.3846,4108.7179,4102.0513
4052.8205,4117.9487,4120,4123.5897,4153.3333,4127.1795,4126.6667,4124.1026,4104.6154,4109.2308,4112.8205,4101.0256
4053.3333,4118.9744,4118.9744,4121.0256,4142.0513,4124.6154,4122.0513,4123.0769,4110.7692,4110.7692,4115.8974,4101.0256
4053.3333,4124.1026,4123.0769,4121.0256,4148.2051,4124.1026,4123.5897,4123.0769,4123.0769,4122.0513,4125.1282,4111.7949
4063.5897,4126.1538,4124.6154,4127.6923,4156.9231,4128.2051,4126.1538,4128.7179,4123.5897,4125.641,4134.359,4122.5641
4063.5897,4123.5897,4122.0513,4130.2564,4151.7949,4134.8718,4127.1795,4138.4615,4118.9744,4120,4137.4359,4123.5897
4057.9487,4116.9231,4122.5641,4127.1795,4154.359,4139.4872,4129.2308,4136.9231,4123.5897,4122.5641,4140,4124.1026
4058.4615,4115.8974,4123.0769,4123.5897,4160.5128,4134.8718,4125.1282,4125.1282,4123.0769,4125.641,4135.8974,4123.5897
4054.359,4124.1026,4121.5385,4123.0769,4150.7692,4127.6923,4121.5385,4121.5385,4110.7692,4118.4615,4124.6154,4114.8718
4052.8205,4124.6154,4120.5128,4124.6154,4147.6923,4127.1795,4123.5897,4123.5897,4110.7692,4115.8974,4120.5128,4107.6923
4062.5641,4120.5128,4123.5897,4125.641,4154.8718,4127.1795,4123.5897,4122.5641,4118.9744,4121.0256,4125.641,4116.4103
4071.7949,4123.0769,4127.6923,4125.641,4155.3846,4124.1026,4122.5641,4123.5897,4116.9231,4127.1795,4129.2308,4125.641
4065.1282,4121.5385,4126.6667,4130.2564,4148.7179,4126.6667,4124.6154,4125.1282,4114.359,4128.2051,4125.641,4122.0513
4054.8718,4118.4615,4122.0513,4138.9744,4137.9487,4129.7436,4125.641,4123.0769,4116.4103,4127.1795,4123.5897,4122.0513
4053.8462,4121.0256,4123.0769,4136.4103,4135.8974,4125.1282,4122.0513,4120.5128,4110.7692,4124.6154,4126.6667,4120
4051.2821,4122.5641,4119.4872,4121.5385,4144.1026,4123.5897,4120,4122.0513,4103.0769,4121.0256,4120.5128,4105.1282
4044.1026,4116.9231,4111.7949,4119.4872,4142.5641,4126.6667,4122.0513,4125.641,4105.1282,4120.5128,4105.641,4097.9487
4043.0769,4117.9487,4115.3846,4134.359,4142.5641,4123.5897,4125.1282,4125.641,4107.6923,4121.5385,4110.2564,4111.7949
4041.5385,4122.0513,4123.0769,4135.3846,4147.6923,4121.0256,4124.1026,4122.5641,4107.1795,4121.5385,4121.5385,4117.4359
4044.6154,4116.9231,4121.0256,4122.5641,4142.5641,4120.5128,4122.5641,4121.0256,4107.1795,4120,4113.3333,4108.7179
4057.4359,4121.0256,4118.4615,4125.641,4142.5641,4120.5128,4123.5897,4123.5897,4107.6923,4122.0513,4104.6154,4108.7179
4064.6154,4129.2308,4121.5385,4138.4615,4151.7949,4123.0769,4124.1026,4121.5385,4108.7179,4127.6923,4112.3077,4117.9487
4064.6154,4124.6154,4126.1538,4137.4359,4151.2821,4124.6154,4123.0769,4117.9487,4110.2564,4128.7179,4119.4872,4121.0256
4063.5897,4122.5641,4133.3333,4135.3846,4147.6923,4122.0513,4124.1026,4123.0769,4113.3333,4131.2821,4119.4872,4121.0256
4066.6667,4128.2051,4141.5385,4143.5897,4153.8462,4123.5897,4126.6667,4128.2051,4121.5385,4139.4872,4121.0256,4130.7692
4068.7179,4126.6667,4138.4615,4143.5897,4156.9231,4126.1538,4125.1282,4125.641,4125.641,4139.4872,4122.0513,4133.3333
4066.6667,4124.1026,4132.3077,4134.8718,4156.4103,4122.5641,4121.5385,4124.6154,4118.9744,4131.7949,4120.5128,4124.6154
4071.7949,4126.1538,4132.8205,4134.359,4152.8205,4120.5128,4120.5128,4124.6154,4112.8205,4132.3077,4120,4124.6154
4078.9744,4123.5897,4135.3846,4138.4615,4154.8718,4130.2564,4123.5897,4123.0769,4112.8205,4137.4359,4123.0769,4131.7949
4066.1538,4119.4872,4137.9487,4142.5641,4159.4872,4137.9487,4128.7179,4127.6923,4115.8974,4140.5128,4129.7436,4135.8974
4050.7692,4121.0256,4133.3333,4137.4359,4142.0513,4129.7436,4126.6667,4129.2308,4114.8718,4137.9487,4126.6667,4132.8205
4059.4872,4117.9487,4121.5385,4129.2308,4132.3077,4121.5385,4124.1026,4126.1538,4107.1795,4129.2308,4122.5641,4130.2564
4072.8205,4116.4103,4121.0256,4132.8205,4151.7949,4125.1282,4127.1795,4129.7436,4107.6923,4128.2051,4129.2308,4133.3333
4075.3846,4124.1026,4137.4359,4136.4103,4164.6154,4126.6667,4129.7436,4139.4872,4120.5128,4137.9487,4138.4615,4139.4872
4068.7179,4122.0513,4142.0513,4125.1282,4147.6923,4122.0513,4125.1282,4138.4615,4127.6923,4143.5897,4141.5385,4142.0513
4058.9744,4117.9487,4124.1026,4121.5385,4129.2308,4117.9487,4120,4125.641,4123.0769,4132.8205,4136.9231,4136.4103
4062.0513,4124.1026,4120.5128,4134.8718,4141.0256,4123.0769,4126.6667,4123.0769,4123.0769,4123.0769,4129.2308,4129.2308
4073.8462,4124.1026,4134.359,4141.5385,4161.0256,4137.9487,4137.9487,4133.8462,4126.1538,4128.2051,4123.5897,4128.7179
4075.3846,4117.9487,4141.0256,4137.9487,4157.4359,4137.4359,4137.9487,4139.4872,4119.4872,4135.3846,4121.0256,4136.4103
4073.3333,4118.4615,4136.9231,4138.9744,4149.2308,4126.6667,4133.3333,4135.3846,4118.4615,4139.4872,4126.6667,4141.0256
4076.9231,4119.4872,4137.4359,4141.5385,4150.2564,4126.6667,4137.4359,4135.8974,4133.3333,4145.1282,4137.9487,4139.4872
4077.9487,4116.9231,4140.5128,4135.3846,4132.3077,4128.2051,4137.9487,4138.9744,4138.9744,4147.1795,4143.0769,4142.0513
4073.3333,4117.9487,4137.4359,4126.6667,4115.3846,4120.5128,4125.641,4136.4103,4130.2564,4141.0256,4138.9744,4141.5385
4076.9231,4124.1026,4138.9744,4133.8462,4138.4615,4121.0256,4124.6154,4132.3077,4131.7949,4140,4138.4615,4142.5641
4086.1538,4123.0769,4140.5128,4148.2051,4160.5128,4128.7179,4134.8718,4128.2051,4138.4615,4144.6154,4144.6154,4144.6154
4073.3333,4116.9231,4129.7436,4145.1282,4143.0769,4129.2308,4135.3846,4127.1795,4127.6923,4135.8974,4140.5128,4131.7949
4048.7179,4116.4103,4118.9744,4133.3333,4125.641,4124.1026,4128.2051,4124.6154,4116.4103,4123.0769,4128.2051,4116.4103
4056.4103,4120.5128,4126.6667,4140,4128.7179,4122.5641,4123.5897,4121.0256,4125.1282,4125.1282,4129.7436,4125.1282
4082.5641,4125.641,4140,4153.8462,4140.5128,4125.641,4128.7179,4128.2051,4136.4103,4136.4103,4143.0769,4143.5897
4085.641,4122.5641,4140.5128,4149.2308,4146.1538,4129.2308,4134.8718,4138.9744,4140,4139.4872,4143.0769,4144.6154
4067.1795,4115.8974,4128.7179,4137.9487,4133.3333,4128.2051,4130.2564,4137.9487,4135.3846,4135.3846,4136.4103,4137.9487
4058.4615,4117.4359,4123.0769,4137.9487,4133.3333,4124.1026,4122.5641,4128.7179,4131.2821,4133.3333,4138.4615,4135.8974
4061.5385,4118.4615,4123.0769,4140,4155.3846,4125.1282,4122.0513,4123.5897,4130.2564,4128.2051,4134.8718,4128.2051
4057.4359,4116.4103,4120,4135.3846,4159.4872,4128.2051,4123.5897,4121.5385,4124.1026,4121.0256,4120.5128,4118.4615
4053.8462,4116.4103,4115.8974,4136.4103,4145.641,4126.6667,4121.5385,4121.0256,4120.5128,4120.5128,4120,4117.4359
4056.9231,4117.4359,4119.4872,4140.5128,4148.7179,4123.5897,4122.5641,4122.0513,4130.2564,4124.6154,4129.2308,4122.0513
4059.4872,4115.8974,4124.6154,4138.9744,4154.359,4124.6154,4120.5128,4122.5641,4134.359,4124.1026,4126.1538,4123.5897
4065.641,4110.2564,4125.1282,4145.1282,4135.3846,4124.1026,4118.4615,4121.0256,4129.7436,4121.5385,4122.5641,4125.1282
4078.4615,4113.3333,4130.2564,4156.4103,4116.9231,4118.9744,4121.0256,4121.0256,4132.8205,4129.2308,4133.3333,4129.2308
4080,4118.4615,4137.4359,4151.2821,4124.1026,4119.4872,4123.0769,4129.2308,4137.9487,4140,4141.0256,4135.8974
4067.1795,4116.9231,4137.9487,4140.5128,4142.5641,4131.2821,4124.1026,4135.8974,4138.9744,4141.0256,4143.0769,4144.1026
4061.0256,4114.359,4126.1538,4140.5128,4138.4615,4135.3846,4127.1795,4136.9231,4137.9487,4134.359,4141.5385,4140
4061.5385,4112.8205,4112.3077,4140.5128,4119.4872,4126.1538,4126.6667,4135.3846,4134.359,4125.1282,4134.359,4125.641
4061.0256,4117.9487,4116.4103,4136.9231,4123.0769,4125.641,4127.1795,4131.7949,4133.8462,4121.5385,4132.3077,4124.1026
4062.5641,4124.6154,4126.6667,4137.9487,4132.8205,4130.7692,4127.6923,4126.1538,4134.8718,4125.641,4136.4103,4127.6923
4062.0513,4118.9744,4120,4137.4359,4126.1538,4126.6667,4121.5385,4119.4872,4130.7692,4121.0256,4127.6923,4116.9231
4059.4872,4119.4872,4111.7949,4135.3846,4115.3846,4119.4872,4118.4615,4118.4615,4129.2308,4110.2564,4120.5128,4111.2821
4063.0769,4127.1795,4124.1026,4138.4615,4116.9231,4123.0769,4124.1026,4126.6667,4140.5128,4118.9744,4131.7949,4126.6667
4068.2051,4127.1795,4136.4103,4140,4134.359,4131.7949,4131.2821,4135.8974,4151.2821,4135.3846,4141.5385,4136.9231
4066.1538,4125.1282,4132.3077,4137.4359,4141.0256,4131.7949,4133.8462,4137.9487,4152.3077,4136.4103,4141.5385,4134.8718
4064.6154,4128.7179,4124.1026,4137.9487,4122.5641,4125.641,4133.8462,4135.3846,4149.2308,4133.8462,4144.6154,4137.4359
4066.1538,4130.2564,4120.5128,4140,4118.4615,4130.7692,4135.8974,4134.359,4146.1538,4137.4359,4144.1026,4136.9231
4068.2051,4123.5897,4125.1282,4140,4137.9487,4140,4137.4359,4134.359,4147.6923,4138.4615,4138.9744,4132.8205
4069.7436,4123.0769,4136.4103,4139.4872,4144.1026,4137.9487,4137.4359,4135.3846,4145.1282,4136.9231,4138.4615,4137.9487
4066.1538,4130.2564,4140,4138.9744,4132.8205,4135.8974,4136.4103,4134.359,4140.5128,4135.8974,4140,4143.0769
4062.0513,4129.7436,4127.6923,4137.9487,4123.5897,4136.9231,4133.8462,4127.1795,4137.4359,4128.2051,4138.4615,4132.3077
4062.0513,4125.1282,4120,4136.4103,4123.0769,4128.7179,4127.1795,4124.1026,4130.7692,4117.4359,4132.3077,4120
4063.0769,4126.6667,4124.1026,4135.8974,4124.1026,4121.5385,4124.1026,4129.7436,4125.641,4120,4129.2308,4120.5128
4060.5128,4126.6667,4123.0769,4136.4103,4120.5128,4125.1282,4127.1795,4132.8205,4122.5641,4123.0769,4133.8462,4121.5385
4055.8974,4123.5897,4122.0513,4136.4103,4116.4103,4125.641,4126.6667,4127.6923,4120.5128,4117.9487,4131.2821,4117.4359
4061.0256,4125.641,4130.2564,4139.4872,4120.5128,4121.5385,4118.9744,4124.1026,4120,4119.4872,4130.2564,4120
4073.3333,4128.7179,4130.2564,4142.0513,4134.8718,4123.0769,4121.0256,4128.2051,4123.5897,4125.641,4139.4872,4125.1282
4068.7179,4124.6154,4121.5385,4138.4615,4139.4872,4127.1795,4129.7436,4127.6923,4125.641,4123.0769,4138.9744,4121.0256
4055.8974,4122.5641,4128.7179,4141.0256,4127.1795,4126.1538,4128.2051,4122.0513,4124.1026,4125.641,4138.4615,4122.0513
4065.1282,4129.2308,4143.0769,4147.6923,4127.1795,4126.6667,4129.2308,4130.2564,4128.2051,4138.9744,4150.7692,4134.8718
4086.1538,4129.7436,4142.5641,4149.7436,4138.9744,4130.2564,4133.3333,4140.5128,4129.7436,4143.5897,4149.7436,4138.9744
4087.6923,4128.7179,4138.9744,4150.7692,4131.7949,4126.6667,4127.6923,4133.3333,4127.6923,4137.4359,4137.4359,4132.3077
4077.4359,4129.2308,4141.0256,4153.3333,4122.5641,4119.4872,4119.4872,4121.0256,4124.1026,4134.8718,4138.9744,4134.8718
4082.5641,4125.641,4138.9744,4153.3333,4140,4125.1282,4124.6154,4124.1026,4121.0256,4136.9231,4141.0256,4140.5128
4087.6923,4126.6667,4138.9744,4153.8462,4149.7436,4138.4615,4134.359,4134.359,4126.1538,4138.4615,4136.9231,4137.9487
4077.4359,4126.1538,4141.0256,4149.2308,4135.3846,4135.3846,4131.2821,4130.7692,4128.7179,4133.8462,4136.9231,4129.7436
4070.2564,4122.5641,4133.8462,4138.4615,4125.641,4123.0769,4125.641,4122.5641,4115.8974,4123.0769,4137.4359,4123.0769
4068.7179,4121.5385,4125.641,4134.8718,4125.1282,4120.5128,4121.5385,4121.0256,4106.6667,4120.5128,4134.8718,4121.5385
4065.1282,4126.6667,4124.6154,4135.8974,4123.0769,4120,4116.4103,4118.9744,4113.8462,4128.2051,4133.3333,4120.5128
4071.2821,4131.7949,4131.7949,4136.4103,4128.2051,4119.4872,4114.359,4119.4872,4121.0256,4135.3846,4135.8974,4120
4080,4130.2564,4137.4359,4139.4872,4144.6154,4128.7179,4118.9744,4126.1538,4122.5641,4137.9487,4141.5385,4126.1538
4074.8718,4128.7179,4138.4615,4140.5128,4155.3846,4138.9744,4123.0769,4128.7179,4121.5385,4136.4103,4139.4872,4135.3846
4078.9744,4128.2051,4135.3846,4136.9231,4152.8205,4138.9744,4128.7179,4124.1026,4122.0513,4137.4359,4137.4359,4136.4103
4089.2308,4130.2564,4131.2821,4135.3846,4153.8462,4133.3333,4136.4103,4124.1026,4125.641,4134.8718,4141.0256,4130.2564
4079.4872,4133.8462,4128.7179,4136.9231,4155.3846,4126.1538,4132.3077,4126.1538,4117.9487,4125.1282,4134.359,4120
4061.0256,4125.1282,4125.1282,4137.9487,4141.5385,4119.4872,4120.5128,4119.4872,4105.1282,4120.5128,4116.9231,4113.8462
4059.4872,4119.4872,4122.0513,4133.3333,4129.7436,4120,4120,4113.3333,4107.1795,4119.4872,4111.7949,4116.4103
4075.8974,4128.2051,4127.1795,4132.3077,4135.8974,4122.5641,4121.5385,4119.4872,4118.9744,4124.6154,4124.6154,4122.5641
4084.6154,4131.7949,4134.8718,4140,4147.6923,4123.0769,4121.0256,4124.1026,4126.6667,4135.8974,4137.9487,4128.7179
4079.4872,4128.7179,4137.4359,4138.4615,4149.2308,4128.2051,4127.6923,4121.5385,4131.7949,4138.4615,4144.6154,4131.7949
4085.1282,4129.7436,4139.4872,4138.9744,4154.8718,4138.4615,4138.9744,4131.2821,4142.0513,4143.0769,4152.8205,4143.0769
4095.8974,4129.7436,4143.5897,4151.7949,4157.4359,4137.9487,4138.9744,4136.9231,4151.7949,4155.8974,4161.5385,4153.3333
4088.2051,4125.1282,4140.5128,4152.8205,4141.5385,4123.0769,4127.1795,4126.6667,4148.7179,4152.3077,4155.8974,4145.1282
4086.1538,4121.5385,4138.9744,4141.5385,4136.4103,4123.0769,4127.6923,4128.7179,4147.6923,4143.5897,4144.1026,4137.9487
4086.6667,4125.1282,4142.5641,4140.5128,4153.8462,4135.8974,4138.9744,4137.9487,4153.8462,4146.6667,4140,4136.9231
4076.4103,4129.7436,4140.5128,4144.1026,4155.3846,4134.8718,4140.5128,4126.6667,4152.3077,4142.5641,4138.4615,4130.7692
4077.4359,4129.7436,4136.4103,4142.0513,4139.4872,4125.1282,4132.3077,4119.4872,4146.6667,4136.4103,4140,4131.7949
4088.7179,4127.1795,4135.8974,4141.5385,4133.3333,4123.5897,4125.641,4127.1795,4152.3077,4140.5128,4143.0769,4141.0256
4083.0769,4126.1538,4136.9231,4136.9231,4131.2821,4123.5897,4122.5641,4122.5641,4158.4615,4140.5128,4143.0769,4137.9487
4074.8718,4124.6154,4134.8718,4133.8462,4118.9744,4118.4615,4119.4872,4114.8718,4147.6923,4135.8974,4136.9231,4131.7949
4087.1795,4124.6154,4135.8974,4143.0769,4115.3846,4117.9487,4119.4872,4126.1538,4142.5641,4138.4615,4136.9231,4136.9231
4097.4359,4129.7436,4145.641,4153.8462,4135.3846,4126.1538,4128.7179,4137.4359,4152.3077,4144.6154,4140.5128,4138.4615
4090.7692,4133.3333,4151.2821,4157.9487,4156.4103,4134.8718,4138.4615,4139.4872,4156.4103,4145.641,4140.5128,4135.3846
4087.1795,4130.2564,4143.5897,4157.4359,4154.8718,4138.4615,4140,4141.5385,4154.359,4143.0769,4146.6667,4137.9487
4089.7436,4129.7436,4135.8974,4156.9231,4141.0256,4133.8462,4136.4103,4138.9744,4153.3333,4136.9231,4150.7692,4134.359
4085.1282,4129.2308,4140,4157.4359,4140.5128,4126.1538,4129.2308,4126.1538,4149.7436,4132.8205,4145.1282,4123.0769
4076.4103,4127.1795,4143.0769,4148.2051,4147.1795,4122.5641,4122.5641,4112.8205,4144.1026,4132.8205,4137.9487,4120
4081.5385,4129.2308,4137.9487,4141.0256,4145.641,4124.6154,4121.0256,4108.7179,4145.1282,4134.359,4137.4359,4128.2051
4096.4103,4129.2308,4140,4149.7436,4145.1282,4129.2308,4121.0256,4115.3846,4150.2564,4141.0256,4142.5641,4135.8974
4104.1026,4131.2821,4150.7692,4157.9487,4154.359,4131.2821,4122.5641,4127.6923,4154.8718,4151.2821,4150.7692,4147.1795
4105.1282,4134.359,4157.4359,4155.3846,4156.4103,4129.7436,4130.7692,4135.8974,4158.9744,4158.9744,4160.5128,4156.9231
4092.3077,4130.7692,4152.8205,4154.359,4133.8462,4123.5897,4132.8205,4136.4103,4159.4872,4152.8205,4155.8974,4147.6923
4072.8205,4128.7179,4140.5128,4148.2051,4122.5641,4123.0769,4131.2821,4135.8974,4153.3333,4137.4359,4141.0256,4133.8462
4075.3846,4130.2564,4134.8718,4139.4872,4145.1282,4133.3333,4134.8718,4133.8462,4147.1795,4134.8718,4138.4615,4135.8974
4091.2821,4130.7692,4140,4148.7179,4155.3846,4134.8718,4132.8205,4127.1795,4146.1538,4137.4359,4142.0513,4141.0256
4096.9231,4130.2564,4142.5641,4158.4615,4141.0256,4125.641,4123.0769,4123.5897,4147.6923,4133.8462,4137.4359,4134.8718
4090.2564,4130.7692,4140,4148.7179,4135.8974,4118.4615,4116.4103,4123.0769,4144.1026,4134.359,4133.8462,4128.7179
4076.9231,4129.2308,4138.4615,4137.9487,4140,4116.4103,4115.3846,4115.8974,4137.4359,4131.7949,4131.7949,4120.5128
4074.359,4125.641,4135.8974,4135.3846,4142.5641,4115.8974,4113.8462,4110.7692,4135.8974,4122.0513,4128.2051,4122.5641
4098.4615,4132.3077,4143.5897,4143.5897,4153.3333,4127.1795,4121.5385,4121.5385,4145.1282,4135.3846,4144.1026,4146.1538
4113.8462,4138.4615,4162.0513,4155.8974,4163.0769,4140.5128,4133.8462,4132.8205,4156.9231,4157.4359,4160.5128,4160
4098.4615,4132.3077,4161.5385,4152.8205,4151.7949,4133.3333,4134.359,4128.7179,4150.2564,4148.7179,4148.2051,4147.6923
4086.1538,4129.2308,4143.0769,4141.0256,4132.3077,4121.0256,4127.1795,4123.0769,4134.8718,4135.3846,4132.8205,4132.8205
4082.0513,4127.6923,4134.8718,4139.4872,4130.7692,4122.5641,4124.6154,4122.0513,4134.359,4136.4103,4131.7949,4126.6667
4078.4615,4125.641,4134.8718,4141.5385,4140,4124.6154,4125.1282,4120.5128,4133.3333,4133.8462,4126.1538,4118.4615
4087.1795,4130.7692,4134.359,4139.4872,4136.9231,4119.4872,4121.5385,4120.5128,4127.1795,4130.7692,4121.5385,4122.0513
4099.4872,4132.8205,4138.4615,4141.0256,4136.9231,4120,4122.0513,4124.1026,4140,4137.4359,4134.359,4135.3846
4095.8974,4131.2821,4141.5385,4143.5897,4149.2308,4123.5897,4125.1282,4127.6923,4154.359,4140,4142.0513,4140.5128
4089.7436,4131.7949,4141.5385,4142.0513,4149.7436,4122.5641,4123.5897,4129.2308,4146.6667,4135.8974,4130.7692,4137.9487
4090.7692,4132.3077,4147.1795,4137.9487,4140,4120,4125.1282,4128.7179,4143.5897,4143.0769,4127.6923,4137.4359
4096.4103,4132.3077,4154.8718,4140.5128,4143.5897,4123.5897,4131.7949,4125.641,4151.2821,4149.7436,4136.9231,4139.4872
4104.6154,4132.8205,4154.8718,4151.7949,4153.8462,4130.2564,4134.359,4124.6154,4145.641,4145.641,4135.8974,4144.1026
4098.4615,4133.8462,4142.5641,4151.2821,4149.2308,4129.2308,4130.7692,4126.1538,4133.8462,4136.4103,4124.1026,4138.4615
4081.5385,4129.2308,4125.1282,4135.8974,4134.359,4122.5641,4125.641,4123.0769,4134.8718,4127.6923,4117.4359,4116.9231
4082.5641,4128.7179,4125.641,4132.8205,4132.8205,4120.5128,4126.6667,4122.0513,4139.4872,4127.1795,4124.1026,4107.6923
4091.7949,4134.8718,4140.5128,4141.0256,4151.2821,4125.1282,4128.2051,4124.1026,4137.9487,4132.3077,4132.8205,4117.4359
4089.7436,4133.3333,4142.5641,4141.0256,4156.9231,4125.641,4124.6154,4123.0769,4137.9487,4134.8718,4128.2051,4123.0769
4091.7949,4131.2821,4133.8462,4144.6154,4137.9487,4121.5385,4120.5128,4120.5128,4144.6154,4131.7949,4125.1282,4125.641
4105.641,4133.8462,4141.0256,4155.3846,4136.4103,4123.0769,4122.0513,4126.1538,4154.359,4137.4359,4138.4615,4136.9231
4108.7179,4132.8205,4151.7949,4152.3077,4154.359,4127.6923,4125.1282,4133.8462,4154.8718,4148.7179,4144.6154,4142.5641
4102.0513,4131.2821,4145.1282,4141.5385,4153.3333,4128.7179,4129.2308,4135.3846,4145.1282,4149.2308,4136.9231,4134.8718
4098.9744,4130.7692,4135.3846,4139.4872,4139.4872,4127.1795,4132.3077,4130.2564,4139.4872,4142.0513,4134.8718,4126.1538
4097.4359,4130.7692,4138.4615,4142.0513,4141.0256,4127.6923,4128.7179,4125.1282,4136.4103,4135.8974,4132.3077,4121.5385
4096.9231,4131.2821,4138.4615,4140.5128,4140.5128,4128.7179,4129.2308,4123.5897,4126.1538,4131.7949,4124.6154,4121.5385
4092.3077,4129.7436,4126.1538,4138.9744,4132.8205,4128.2051,4133.3333,4120,4115.8974,4124.6154,4117.9487,4114.8718
4085.641,4127.1795,4124.6154,4138.9744,4137.4359,4126.6667,4129.7436,4119.4872,4116.4103,4118.9744,4120,4104.6154
4087.1795,4128.2051,4135.8974,4140,4133.8462,4125.641,4123.5897,4122.0513,4121.0256,4122.0513,4124.1026,4111.2821
4092.3077,4132.3077,4138.9744,4138.4615,4116.4103,4122.5641,4124.1026,4121.5385,4126.1538,4127.6923,4125.641,4125.1282
4095.3846,4133.3333,4138.9744,4133.8462,4121.0256,4118.4615,4121.5385,4121.5385,4134.8718,4134.8718,4130.7692,4130.2564
4104.6154,4133.3333,4150.2564,4136.4103,4147.6923,4124.6154,4121.0256,4125.1282,4141.0256,4147.1795,4138.4615,4137.9487
4114.359,4136.9231,4161.5385,4142.5641,4156.4103,4132.8205,4128.2051,4129.7436,4140,4154.359,4142.0513,4145.641
4105.641,4132.3077,4154.8718,4141.5385,4143.0769,4126.6667,4127.6923,4127.6923,4132.8205,4147.6923,4139.4872,4134.8718
4090.7692,4128.2051,4142.5641,4136.4103,4138.4615,4122.0513,4124.1026,4122.0513,4125.1282,4138.9744,4131.2821,4123.0769
4086.6667,4131.7949,4137.9487,4135.3846,4134.359,4126.6667,4125.641,4118.4615,4121.0256,4134.359,4122.0513,4126.6667
4089.7436,4131.7949,4136.4103,4137.9487,4129.7436,4127.1795,4126.1538,4117.4359,4118.9744,4128.2051,4121.0256,4126.6667
4095.8974,4130.7692,4128.7179,4137.9487,4140.5128,4124.6154,4124.1026,4116.4103,4116.4103,4122.5641,4123.5897,4121.0256
4095.3846,4128.7179,4121.0256,4128.2051,4142.0513,4123.0769,4122.0513,4111.7949,4120,4123.5897,4119.4872,4120
4090.2564,4127.6923,4127.1795,4123.0769,4129.2308,4121.0256,4122.0513,4110.2564,4124.1026,4130.7692,4120,4121.5385
4093.3333,4134.359,4141.0256,4134.359,4140,4124.6154,4123.5897,4118.9744,4123.0769,4135.3846,4128.2051,4124.6154
4096.4103,4134.359,4139.4872,4140.5128,4146.1538,4125.641,4123.5897,4123.5897,4125.1282,4132.8205,4128.7179,4127.6923
4091.7949,4128.7179,4126.1538,4128.2051,4123.5897,4118.4615,4120,4118.4615,4127.6923,4125.641,4121.5385,4123.5897
4089.2308,4129.2308,4122.0513,4119.4872,4122.5641,4116.4103,4118.9744,4118.4615,4126.1538,4124.1026,4121.5385,4118.4615
4093.3333,4134.359,4125.641,4128.2051,4144.1026,4121.5385,4122.5641,4120.5128,4123.5897,4130.2564,4128.7179,4120
4094.8718,4134.359,4123.5897,4137.4359,4144.6154,4122.5641,4122.5641,4112.3077,4126.1538,4134.359,4128.2051,4123.0769
4097.9487,4129.7436,4124.1026,4134.8718,4132.3077,4120,4120,4104.6154,4126.6667,4128.7179,4125.1282,4125.641
4102.0513,4130.2564,4128.7179,4129.2308,4124.6154,4123.0769,4120.5128,4108.7179,4120.5128,4120.5128,4126.1538,4125.1282
4092.3077,4130.7692,4124.1026,4123.0769,4116.4103,4125.1282,4121.5385,4114.359,4117.9487,4123.0769,4124.6154,4121.5385
4084.1026,4131.7949,4122.5641,4120.5128,4121.5385,4123.5897,4122.5641,4119.4872,4130.2564,4131.2821,4124.6154,4123.5897
4089.7436,4130.7692,4134.8718,4121.0256,4124.1026,4123.5897,4124.1026,4126.1538,4134.359,4136.9231,4128.7179,4124.6154
4095.3846,4125.641,4140.5128,4115.3846,4106.6667,4121.0256,4123.0769,4125.641,4124.6154,4138.9744,4127.6923,4121.5385
4097.4359,4132.8205,4135.8974,4113.3333,4112.3077,4120,4121.5385,4120.5128,4127.6923,4136.4103,4119.4872,4123.5897
4107.6923,4140,4137.4359,4125.641,4137.4359,4126.1538,4124.6154,4120.5128,4136.4103,4136.9231,4122.0513,4132.3077
4112.8205,4130.7692,4141.5385,4132.8205,4129.7436,4122.5641,4123.5897,4123.0769,4128.2051,4142.5641,4121.5385,4126.6667
4104.6154,4127.1795,4138.4615,4130.2564,4111.2821,4110.2564,4113.8462,4121.0256,4118.4615,4135.8974,4108.2051,4111.2821
4104.6154,4136.9231,4137.9487,4135.8974,4122.5641,4116.9231,4113.3333,4119.4872,4124.6154,4123.5897,4108.7179,4116.9231
4107.6923,4138.9744,4140.5128,4139.4872,4129.7436,4125.641,4121.5385,4121.0256,4129.7436,4123.5897,4121.5385,4127.1795
4107.6923,4132.3077,4140.5128,4138.4615,4121.0256,4122.0513,4124.1026,4125.1282,4135.3846,4135.8974,4128.7179,4122.5641
4113.3333,4129.7436,4141.5385,4140.5128,4125.1282,4128.7179,4126.1538,4130.7692,4144.1026,4142.0513,4129.7436,4128.2051
4107.6923,4131.2821,4142.5641,4134.8718,4122.0513,4136.4103,4129.7436,4126.6667,4137.4359,4133.8462,4126.1538,4135.3846
4093.8462,4128.2051,4134.359,4122.5641,4104.6154,4126.6667,4124.1026,4114.359,4123.0769,4124.6154,4121.0256,4122.5641
4098.9744,4129.7436,4126.6667,4118.4615,4109.2308,4122.5641,4121.5385,4109.2308,4118.9744,4122.0513,4121.0256,4117.4359
4110.7692,4133.8462,4131.2821,4123.0769,4126.1538,4128.7179,4127.1795,4113.8462,4123.5897,4126.6667,4123.0769,4125.1282
4101.0256,4130.7692,4136.9231,4124.1026,4113.3333,4121.5385,4120.5128,4112.3077,4124.6154,4133.3333,4120,4114.359
4085.1282,4130.7692,4136.4103,4123.5897,4103.0769,4114.359,4109.7436,4107.6923,4119.4872,4131.2821,4112.8205,4107.1795
4089.2308,4133.3333,4138.4615,4122.5641,4122.5641,4122.0513,4112.8205,4113.8462,4121.0256,4128.2051,4109.7436,4120.5128
4107.1795,4131.7949,4138.4615,4121.0256,4127.1795,4120.5128,4112.8205,4121.5385,4126.1538,4131.2821,4112.8205,4126.1538
4117.4359,4133.3333,4137.9487,4129.2308,4115.3846,4109.2308,4105.641,4124.1026,4127.1795,4138.4615,4118.9744,4123.5897
4112.3077,4134.359,4148.2051,4141.5385,4120,4109.2308,4108.2051,4122.5641,4130.7692,4147.1795,4125.1282,4133.3333
4108.7179,4133.3333,4151.2821,4141.0256,4125.641,4116.4103,4114.8718,4122.0513,4134.8718,4152.3077,4128.7179,4138.4615
4113.8462,4133.3333,4143.5897,4135.8974,4123.0769,4115.8974,4113.3333,4124.1026,4130.2564,4149.7436,4127.6923,4130.2564
4107.6923,4135.3846,4140,4131.2821,4121.0256,4110.2564,4108.2051,4118.4615,4121.5385,4138.4615,4122.0513,4127.1795
4095.8974,4132.3077,4131.7949,4124.6154,4110.7692,4106.1538,4105.641,4107.6923,4113.8462,4126.1538,4112.8205,4121.5385
4097.9487,4128.7179,4126.1538,4124.6154,4108.7179,4108.2051,4107.6923,4103.5897,4109.2308,4120.5128,4106.6667,4113.3333
4103.0769,4130.7692,4134.359,4129.7436,4126.1538,4112.3077,4109.7436,4107.6923,4107.1795,4121.5385,4104.1026,4113.8462
4105.1282,4132.8205,4136.9231,4131.2821,4125.1282,4111.7949,4106.1538,4111.2821,4108.7179,4124.1026,4107.6923,4117.9487
4114.359,4139.4872,4138.4615,4145.641,4116.4103,4115.8974,4110.2564,4118.4615,4122.0513,4130.7692,4125.1282,4128.2051
4125.1282,4144.6154,4154.8718,4160,4134.8718,4127.1795,4121.5385,4125.1282,4137.4359,4144.6154,4140,4140
4126.6667,4135.3846,4155.8974,4151.7949,4144.6154,4122.5641,4117.4359,4123.5897,4131.7949,4145.641,4132.3077,4133.3333
4118.9744,4128.7179,4136.9231,4139.4872,4125.641,4108.2051,4104.6154,4119.4872,4114.8718,4133.8462,4118.4615,4116.9231
4115.3846,4128.7179,4138.4615,4141.0256,4120,4111.7949,4104.6154,4122.0513,4125.1282,4134.359,4122.0513,4125.641
4121.5385,4128.2051,4152.8205,4146.6667,4131.7949,4121.5385,4111.2821,4123.0769,4143.5897,4143.5897,4131.7949,4142.0513
4121.0256,4130.7692,4149.2308,4138.4615,4128.2051,4113.8462,4109.7436,4114.8718,4133.8462,4142.0513,4128.2051,4137.4359
4107.1795,4128.2051,4135.8974,4127.1795,4113.8462,4106.1538,4107.6923,4110.2564,4122.5641,4133.8462,4120.5128,4124.1026
4105.1282,4125.641,4135.3846,4130.2564,4121.0256,4114.8718,4112.8205,4117.4359,4127.1795,4132.8205,4122.0513,4118.4615
4120.5128,4131.7949,4146.6667,4141.5385,4146.1538,4127.6923,4118.9744,4123.5897,4130.2564,4140.5128,4130.2564,4126.6667
4131.2821,4134.359,4151.2821,4143.5897,4160,4133.3333,4121.5385,4122.0513,4129.7436,4144.1026,4137.9487,4138.9744
4124.6154,4130.7692,4145.641,4140.5128,4157.9487,4132.8205,4125.1282,4123.5897,4131.2821,4143.5897,4140.5128,4143.0769
4110.7692,4127.1795,4139.4872,4140,4143.5897,4126.6667,4122.5641,4124.1026,4125.641,4137.9487,4130.2564,4134.8718
4107.6923,4127.1795,4134.359,4132.3077,4125.1282,4114.8718,4108.2051,4116.9231,4116.4103,4123.0769,4117.4359,4120.5128
4120.5128,4129.7436,4136.4103,4128.2051,4128.2051,4110.7692,4104.6154,4117.4359,4123.0769,4123.0769,4122.5641,4118.9744
4127.1795,4131.2821,4140.5128,4134.8718,4141.5385,4117.9487,4116.4103,4127.1795,4132.3077,4138.9744,4130.2564,4131.2821
4113.8462,4131.2821,4140.5128,4136.4103,4143.5897,4122.0513,4120,4128.2051,4126.6667,4139.4872,4122.5641,4133.8462
4112.3077,4131.2821,4145.1282,4137.4359,4145.641,4122.5641,4118.9744,4121.5385,4124.6154,4138.4615,4119.4872,4131.7949
4131.7949,4132.3077,4155.3846,4144.1026,4146.1538,4122.0513,4121.5385,4121.5385,4128.2051,4151.2821,4132.3077,4140.5128
4138.9744,4131.7949,4154.8718,4144.6154,4135.8974,4120.5128,4116.4103,4123.0769,4126.6667,4153.3333,4138.9744,4141.5385
4127.1795,4131.2821,4152.8205,4143.0769,4142.0513,4127.1795,4113.3333,4120.5128,4128.2051,4143.0769,4137.9487,4135.8974
4120.5128,4132.8205,4153.3333,4151.2821,4153.8462,4134.8718,4120.5128,4121.0256,4133.8462,4138.9744,4138.9744,4140
4126.6667,4130.7692,4143.5897,4150.2564,4149.2308,4130.2564,4124.1026,4123.0769,4132.3077,4138.4615,4136.4103,4142.0513
4126.6667,4126.6667,4135.3846,4137.9487,4148.2051,4125.1282,4123.0769,4120,4128.7179,4133.8462,4125.641,4135.3846
4114.359,4126.1538,4141.5385,4137.4359,4153.8462,4126.6667,4123.0769,4122.0513,4136.4103,4135.8974,4122.0513,4137.4359
4109.2308,4126.1538,4152.3077,4140.5128,4152.3077,4127.6923,4122.0513,4132.8205,4141.0256,4149.2308,4133.3333,4143.5897
4115.3846,4127.6923,4149.7436,4128.7179,4147.1795,4123.0769,4121.0256,4133.3333,4135.8974,4150.7692,4136.4103,4140
4124.6154,4130.2564,4138.4615,4125.641,4149.7436,4121.5385,4121.0256,4126.1538,4135.8974,4141.0256,4127.1795,4136.9231
4134.8718,4130.2564,4142.0513,4141.0256,4153.3333,4126.1538,4123.0769,4132.3077,4139.4872,4145.641,4127.1795,4140
4134.8718,4127.6923,4152.3077,4147.1795,4145.1282,4127.1795,4128.2051,4142.0513,4141.0256,4156.9231,4135.3846,4140
4124.6154,4127.6923,4155.3846,4138.9744,4137.4359,4123.5897,4127.6923,4138.4615,4146.6667,4154.8718,4138.9744,4145.641
4123.0769,4133.8462,4159.4872,4141.5385,4151.2821,4130.7692,4125.641,4130.7692,4151.2821,4149.7436,4137.9487,4155.8974
4120.5128,4132.3077,4159.4872,4142.0513,4157.9487,4142.0513,4126.6667,4125.1282,4148.7179,4145.641,4134.359,4148.7179
4105.1282,4127.6923,4153.3333,4128.7179,4144.1026,4135.8974,4125.1282,4120.5128,4143.0769,4138.4615,4125.641,4129.7436
4101.0256,4128.2051,4155.3846,4125.1282,4137.9487,4129.7436,4123.5897,4121.5385,4139.4872,4135.8974,4114.8718,4123.0769
4103.5897,4125.641,4158.4615,4125.1282,4143.0769,4135.3846,4125.641,4122.5641,4138.4615,4138.9744,4109.7436,4123.5897
4095.3846,4127.1795,4160.5128,4121.0256,4151.2821,4138.4615,4129.7436,4126.6667,4145.1282,4143.0769,4116.4103,4124.6154
4095.8974,4130.7692,4171.2821,4130.2564,4157.4359,4129.7436,4128.7179,4135.8974,4146.6667,4144.1026,4122.5641,4126.1538
4104.6154,4130.2564,4171.7949,4135.8974,4148.2051,4122.5641,4124.1026,4140,4135.8974,4141.5385,4117.4359,4125.641
4110.2564,4131.2821,4160.5128,4128.2051,4139.4872,4131.7949,4129.7436,4141.5385,4142.5641,4146.6667,4120,4132.8205
4109.2308,4128.2051,4157.9487,4133.3333,4144.6154,4138.9744,4137.4359,4144.1026,4158.9744,4150.2564,4131.7949,4143.5897
4100.5128,4125.1282,4157.9487,4142.0513,4146.6667,4130.7692,4132.8205,4137.4359,4150.7692,4140.5128,4127.1795,4140
4092.8205,4128.2051,4150.7692,4132.3077,4137.9487,4121.5385,4122.0513,4124.1026,4136.9231,4135.8974,4112.3077,4125.641
4089.2308,4131.7949,4147.1795,4119.4872,4133.8462,4122.0513,4119.4872,4118.9744,4138.4615,4138.4615,4103.5897,4118.9744
4092.3077,4132.8205,4150.7692,4123.5897,4138.9744,4127.1795,4122.0513,4121.5385,4131.7949,4132.8205,4101.0256,4120
4104.1026,4130.7692,4156.9231,4136.4103,4140.5128,4129.7436,4121.5385,4120,4124.6154,4131.7949,4104.6154,4122.5641
4110.7692,4129.7436,4160.5128,4136.4103,4124.6154,4126.1538,4120.5128,4118.4615,4133.3333,4138.9744,4107.6923,4126.1538
4115.8974,4133.8462,4162.5641,4133.3333,4117.4359,4122.0513,4122.5641,4128.7179,4141.0256,4146.6667,4112.3077,4135.3846
4128.2051,4139.4872,4168.7179,4148.2051,4135.3846,4130.2564,4129.2308,4141.5385,4146.6667,4155.3846,4129.7436,4150.7692
4130.2564,4138.4615,4174.359,4155.3846,4136.9231,4135.3846,4132.8205,4144.1026,4154.8718,4158.9744,4141.0256,4158.4615
4124.1026,4130.7692,4173.3333,4142.5641,4120,4129.2308,4128.7179,4141.5385,4156.4103,4155.3846,4130.7692,4156.4103
4121.5385,4125.641,4164.1026,4132.8205,4121.5385,4124.6154,4124.1026,4135.3846,4149.7436,4152.3077,4121.0256,4146.1538
4107.1795,4127.1795,4153.3333,4128.7179,4124.1026,4123.5897,4122.0513,4127.6923,4144.1026,4147.1795,4118.9744,4130.7692
4089.7436,4123.5897,4148.7179,4123.0769,4120.5128,4121.5385,4121.0256,4121.5385,4134.359,4132.3077,4110.2564,4120.5128
4085.1282,4121.0256,4150.2564,4123.0769,4128.7179,4127.6923,4120,4117.4359,4120.5128,4117.4359,4100.5128,4118.9744
4095.3846,4127.1795,4150.2564,4123.5897,4140.5128,4138.9744,4120.5128,4117.9487,4122.0513,4125.1282,4108.7179,4118.9744
4110.2564,4136.4103,4150.7692,4123.5897,4140,4140.5128,4127.1795,4123.5897,4134.8718,4142.0513,4120.5128,4123.5897
4113.3333,4133.3333,4153.3333,4132.3077,4139.4872,4134.8718,4130.7692,4126.1538,4137.9487,4141.0256,4124.1026,4134.8718
4115.3846,4127.1795,4153.3333,4138.4615,4147.6923,4135.8974,4126.1538,4128.2051,4134.359,4137.9487,4127.1795,4138.9744
4123.5897,4132.3077,4158.4615,4137.9487,4151.2821,4136.4103,4130.2564,4136.9231,4137.4359,4150.2564,4126.6667,4136.9231
4127.6923,4133.8462,4164.6154,4137.9487,4142.0513,4131.7949,4139.4872,4141.0256,4140.5128,4160,4125.641,4144.6154
4136.9231,4128.7179,4167.6923,4139.4872,4134.359,4128.7179,4133.8462,4138.4615,4138.9744,4158.4615,4127.6923,4156.4103
4149.7436,4131.7949,4172.3077,4138.9744,4138.9744,4130.2564,4125.641,4137.4359,4140,4158.4615,4126.6667,4155.3846
4130.2564,4135.3846,4163.5897,4137.9487,4143.0769,4130.7692,4127.1795,4130.7692,4139.4872,4154.359,4117.9487,4138.4615
4110.2564,4134.8718,4151.2821,4137.4359,4137.9487,4127.1795,4125.1282,4124.1026,4131.7949,4143.5897,4113.8462,4130.7692
4135.3846,4135.8974,4160.5128,4136.9231,4135.8974,4124.1026,4117.4359,4122.5641,4125.1282,4139.4872,4113.3333,4148.2051
4137.4359,4141.5385,4165.641,4142.5641,4138.4615,4123.0769,4117.9487,4117.4359,4121.5385,4139.4872,4106.1538,4152.3077
4116.4103,4148.2051,4160.5128,4150.2564,4137.9487,4121.5385,4121.0256,4114.8718,4121.5385,4141.0256,4105.641,4146.1538
4138.9744,4148.7179,4172.3077,4153.8462,4135.3846,4121.0256,4116.4103,4120.5128,4128.7179,4151.2821,4123.5897,4170.2564
4154.359,4154.8718,4190.2564,4159.4872,4135.3846,4123.5897,4113.8462,4126.6667,4134.8718,4164.6154,4139.4872,4196.4103
4134.359,4165.1282,4199.4872,4169.2308,4140.5128,4120.5128,4112.3077,4124.6154,4137.4359,4171.7949,4135.3846,4198.9744
4124.1026,4169.7436,4209.7436,4176.4103,4146.1538,4111.7949,4107.1795,4121.5385,4138.9744,4170.2564,4126.1538,4200.5128
4107.1795,4173.3333,4216.9231,4183.0769,4144.1026,4106.1538,4105.1282,4125.1282,4131.2821,4167.6923,4125.1282,4199.4872
4050.2564,4169.2308,4216.9231,4186.1538,4135.3846,4108.7179,4101.0256,4121.5385,4126.1538,4166.1538,4121.0256,4190.2564
3991.2821,4165.641,4216.9231,4185.641,4134.8718,4110.7692,4096.9231,4110.2564,4129.7436,4154.8718,4114.359,4186.6667
3948.2051,4165.641,4214.359,4194.359,4142.5641,4107.1795,4099.4872,4107.1795,4129.7436,4141.0256,4118.4615,4182.5641
3899.4872,4153.8462,4217.9487,4199.4872,4141.5385,4106.1538,4100,4107.6923,4127.6923,4143.5897,4123.0769,4184.6154
3845.1282,4146.1538,4229.7436,4194.359,4133.3333,4107.6923,4098.4615,4106.1538,4132.8205,4148.2051,4121.0256,4197.4359
3790.2564,4148.2051,4227.1795,4194.8718,4136.4103,4108.7179,4101.5385,4111.7949,4136.4103,4144.1026,4122.0513,4195.8974
3747.6923,4153.3333,4217.4359,4203.0769,4153.8462,4115.8974,4107.6923,4122.5641,4134.8718,4144.6154,4122.5641,4185.1282
3728.2051,4153.3333,4222.5641,4209.2308,4164.6154,4125.641,4112.3077,4127.1795,4135.3846,4152.3077,4122.0513,4183.0769
3718.4615,4149.2308,4230.7692,4212.3077,4157.9487,4126.1538,4110.7692,4123.5897,4130.2564,4152.3077,4123.0769,4174.8718
3721.0256,4145.641,4231.2821,4212.3077,4154.359,4119.4872,4104.6154,4122.0513,4124.6154,4149.2308,4124.1026,4168.2051
3730.7692,4145.641,4227.1795,4214.359,4156.4103,4116.4103,4104.6154,4122.5641,4125.641,4149.7436,4121.0256,4173.3333
3711.2821,4146.6667,4220.5128,4216.4103,4143.0769,4111.7949,4106.1538,4115.3846,4121.0256,4138.4615,4112.8205,4165.1282
3683.5897,4138.9744,4217.4359,4207.6923,4134.359,4107.1795,4102.5641,4113.3333,4118.9744,4129.2308,4106.6667,4154.8718
3681.5385,4136.4103,4217.9487,4205.1282,4147.6923,4112.3077,4103.5897,4117.4359,4123.5897,4130.2564,4105.641,4155.8974
3690.7692,4147.6923,4214.8718,4213.8462,4149.2308,4116.9231,4106.6667,4112.3077,4123.0769,4128.2051,4105.641,4143.0769
3690.7692,4147.6923,4214.359,4209.2308,4136.4103,4115.3846,4105.641,4109.7436,4121.5385,4120.5128,4104.6154,4132.8205
3700.5128,4137.4359,4225.641,4201.5385,4144.6154,4117.4359,4105.641,4119.4872,4128.2051,4124.6154,4107.6923,4146.6667
3724.6154,4142.5641,4239.4872,4206.1538,4158.4615,4122.5641,4111.2821,4123.5897,4136.4103,4137.9487,4112.3077,4156.4103
3743.0769,4145.641,4244.6154,4208.7179,4151.7949,4121.0256,4115.3846,4120.5128,4138.4615,4141.0256,4112.8205,4152.8205
3748.7179,4136.4103,4242.0513,4202.5641,4152.8205,4119.4872,4115.3846,4125.1282,4135.8974,4140.5128,4112.3077,4157.4359
3738.9744,4136.4103,4236.9231,4201.5385,4157.9487,4118.9744,4111.2821,4122.0513,4126.6667,4139.4872,4109.2308,4150.2564
3748.7179,4139.4872,4230.7692,4202.5641,4142.5641,4110.7692,4105.1282,4108.7179,4121.0256,4136.9231,4107.1795,4139.4872
3781.0256,4132.8205,4225.641,4202.5641,4137.9487,4106.6667,4105.1282,4109.7436,4124.6154,4134.359,4111.7949,4147.6923
3791.2821,4127.1795,4224.1026,4203.5897,4162.5641,4112.3077,4105.641,4116.4103,4125.641,4129.2308,4113.8462,4147.6923
3793.8462,4130.7692,4228.7179,4205.1282,4172.8205,4112.3077,4100,4110.2564,4121.5385,4124.6154,4109.2308,4137.4359
3801.0256,4129.7436,4226.1538,4204.6154,4158.4615,4108.7179,4100,4105.641,4122.0513,4125.641,4101.5385,4140.5128
3800,4126.1538,4214.8718,4196.4103,4153.3333,4109.7436,4104.6154,4110.2564,4122.5641,4124.1026,4097.9487,4137.9487
3800,4127.6923,4213.3333,4189.7436,4160.5128,4107.6923,4101.5385,4107.1795,4117.4359,4116.4103,4096.4103,4126.6667
3821.5385,4129.2308,4221.0256,4196.4103,4163.0769,4111.7949,4102.0513,4109.7436,4121.0256,4126.1538,4104.6154,4142.5641
3841.0256,4132.8205,4223.0769,4204.6154,4158.9744,4121.0256,4111.7949,4117.4359,4126.1538,4138.4615,4112.3077,4154.359
3833.8462,4125.1282,4213.3333,4197.4359,4154.8718,4117.9487,4109.2308,4108.7179,4115.8974,4127.1795,4104.6154,4128.7179
3830.7692,4113.3333,4206.1538,4189.2308,4153.3333,4112.3077,4101.0256,4102.5641,4112.3077,4121.0256,4100,4120
3842.5641,4115.8974,4204.1026,4192.3077,4145.1282,4111.7949,4102.0513,4113.3333,4121.0256,4129.2308,4107.6923,4140
3845.641,4115.3846,4200.5128,4193.3333,4133.3333,4110.2564,4100.5128,4114.8718,4121.5385,4127.6923,4111.7949,4142.5641
3848.2051,4108.7179,4202.0513,4188.2051,4135.3846,4112.3077,4097.9487,4108.7179,4118.4615,4126.6667,4105.641,4134.8718
3860,4111.2821,4203.5897,4190.7692,4144.6154,4121.0256,4103.5897,4115.3846,4123.5897,4137.9487,4111.2821,4138.9744
3871.7949,4118.4615,4203.0769,4198.4615,4147.1795,4122.5641,4109.7436,4116.4103,4123.5897,4140,4123.0769,4140.5128
3873.3333,4120,4198.4615,4193.8462,4143.0769,4120,4109.2308,4112.8205,4113.3333,4130.7692,4116.9231,4137.9487
3869.2308,4118.4615,4188.7179,4185.641,4138.4615,4121.0256,4106.1538,4116.9231,4112.3077,4124.6154,4106.1538,4136.9231
3860.5128,4122.5641,4184.6154,4184.6154,4142.0513,4117.9487,4107.6923,4116.9231,4116.4103,4121.0256,4105.1282,4128.2051
3859.4872,4129.2308,4186.1538,4186.6667,4144.1026,4111.7949,4105.641,4108.7179,4115.8974,4121.0256,4103.0769,4118.9744
3884.6154,4126.6667,4190.2564,4188.2051,4128.2051,4105.641,4096.4103,4104.1026,4117.9487,4128.7179,4102.5641,4131.7949
3900.5128,4124.6154,4193.8462,4189.2308,4124.1026,4104.6154,4096.4103,4111.7949,4120,4133.8462,4108.2051,4139.4872
3890.2564,4127.1795,4195.8974,4187.6923,4133.3333,4108.7179,4105.641,4118.9744,4123.5897,4134.359,4109.7436,4125.1282
3886.6667,4132.3077,4198.4615,4187.6923,4128.2051,4109.2308,4108.7179,4118.9744,4132.8205,4137.4359,4109.2308,4126.1538
3891.2821,4131.7949,4195.3846,4188.7179,4124.6154,4107.6923,4106.1538,4117.9487,4132.3077,4135.3846,4109.2308,4136.9231
3887.6923,4129.2308,4183.0769,4185.641,4134.8718,4110.7692,4108.2051,4120.5128,4116.9231,4124.1026,4100.5128,4125.1282
3897.9487,4130.7692,4182.0513,4185.1282,4139.4872,4114.8718,4111.2821,4120,4114.359,4118.9744,4098.4615,4115.8974
3911.2821,4129.2308,4192.8205,4186.1538,4137.9487,4114.8718,4111.7949,4118.4615,4126.6667,4129.2308,4109.2308,4127.6923
3902.0513,4129.2308,4190.2564,4184.1026,4127.6923,4111.7949,4108.7179,4116.9231,4127.1795,4134.8718,4110.2564,4127.6923
3899.4872,4131.2821,4183.0769,4180.5128,4108.2051,4108.2051,4104.1026,4113.3333,4121.5385,4128.7179,4107.1795,4124.1026
3911.7949,4131.2821,4184.1026,4179.4872,4109.7436,4107.6923,4104.1026,4115.3846,4124.1026,4126.6667,4113.3333,4130.7692
3916.9231,4134.8718,4184.1026,4186.6667,4126.6667,4109.2308,4105.641,4119.4872,4125.641,4127.6923,4115.8974,4125.1282
3915.3846,4133.8462,4184.6154,4186.1538,4122.5641,4107.6923,4106.1538,4114.359,4125.641,4129.2308,4112.3077,4122.0513
3909.7436,4131.7949,4181.0256,4174.359,4115.3846,4105.641,4107.1795,4108.7179,4125.1282,4128.2051,4107.6923,4127.6923
3914.8718,4134.359,4178.4615,4173.3333,4124.6154,4105.641,4106.6667,4109.2308,4125.1282,4127.6923,4104.6154,4122.0513
3929.2308,4131.2821,4180,4185.1282,4129.2308,4108.7179,4105.641,4108.2051,4125.1282,4127.1795,4107.1795,4115.3846
3924.6154,4129.7436,4176.4103,4183.0769,4128.2051,4111.7949,4110.2564,4111.2821,4124.1026,4124.1026,4109.2308,4122.5641
3924.1026,4132.3077,4170.7692,4174.359,4123.0769,4109.2308,4110.2564,4117.4359,4124.1026,4125.641,4106.6667,4129.2308
3926.1538,4130.7692,4164.6154,4173.3333,4107.6923,4104.6154,4101.5385,4112.3077,4127.6923,4124.6154,4105.641,4123.0769
3915.8974,4128.7179,4162.0513,4171.2821,4106.6667,4104.1026,4100,4113.3333,4135.3846,4122.5641,4107.1795,4120.5128
3918.4615,4131.7949,4165.1282,4170.2564,4117.9487,4105.641,4106.6667,4120.5128,4140,4124.1026,4106.1538,4123.5897
3931.2821,4132.8205,4162.0513,4172.3077,4111.2821,4105.641,4106.1538,4114.8718,4135.8974,4124.1026,4102.5641,4119.4872
3935.8974,4130.2564,4152.3077,4169.7436,4101.5385,4106.6667,4105.641,4108.7179,4132.3077,4122.0513,4104.1026,4118.9744
3940.5128,4133.3333,4153.3333,4170.7692,4108.7179,4110.2564,4115.3846,4117.9487,4134.359,4123.5897,4113.8462,4126.1538
3942.5641,4136.9231,4159.4872,4179.4872,4110.7692,4111.2821,4118.4615,4123.5897,4133.8462,4127.1795,4115.8974,4125.641
3941.0256,4130.2564,4159.4872,4186.6667,4103.0769,4110.2564,4110.2564,4114.8718,4135.8974,4126.6667,4112.3077,4124.1026
3944.1026,4129.7436,4155.8974,4182.0513,4107.1795,4110.2564,4106.1538,4109.7436,4131.2821,4120.5128,4109.7436,4120.5128
3942.0513,4136.4103,4152.3077,4172.3077,4110.7692,4108.7179,4105.641,4106.1538,4124.1026,4117.9487,4106.1538,4115.3846
3945.1282,4135.8974,4160.5128,4168.2051,4104.6154,4106.1538,4104.1026,4109.7436,4138.9744,4129.7436,4112.3077,4123.0769
3961.0256,4136.4103,4170.7692,4172.3077,4102.5641,4106.6667,4107.1795,4122.0513,4153.8462,4140,4125.641,4130.7692
3961.0256,4141.0256,4165.641,4178.4615,4111.2821,4110.2564,4112.3077,4124.1026,4147.6923,4135.3846,4126.6667,4127.6923
3960.5128,4142.5641,4164.1026,4185.641,4115.3846,4111.2821,4110.2564,4118.4615,4145.641,4134.359,4121.5385,4133.8462
3977.4359,4136.4103,4170.7692,4191.2821,4108.2051,4109.7436,4106.6667,4120,4156.4103,4144.1026,4130.7692,4151.2821
3972.8205,4126.1538,4161.0256,4182.5641,4106.1538,4108.2051,4107.1795,4117.9487,4151.2821,4137.9487,4130.2564,4145.1282
3938.9744,4126.6667,4142.0513,4162.0513,4107.6923,4106.6667,4106.6667,4105.1282,4128.7179,4113.8462,4101.0256,4109.7436
3930.7692,4127.1795,4133.8462,4153.8462,4104.6154,4105.641,4105.1282,4104.6154,4118.9744,4105.1282,4083.5897,4089.2308
3955.8974,4126.1538,4136.9231,4163.0769,4106.1538,4108.7179,4108.7179,4118.4615,4129.2308,4117.9487,4097.4359,4102.5641
3967.1795,4133.3333,4146.1538,4174.8718,4110.2564,4113.3333,4115.3846,4124.1026,4136.4103,4126.6667,4109.7436,4116.4103
3960.5128,4135.3846,4149.2308,4173.8462,4104.6154,4111.2821,4112.3077,4120,4131.7949,4122.5641,4103.5897,4110.2564
3964.1026,4131.7949,4146.1538,4169.2308,4105.641,4109.2308,4107.1795,4122.0513,4131.7949,4119.4872,4100,4112.3077
3980.5128,4134.359,4145.641,4169.2308,4108.2051,4112.8205,4112.8205,4127.1795,4140,4128.2051,4112.8205,4127.1795
3987.1795,4138.9744,4145.1282,4171.7949,4097.4359,4115.3846,4120,4126.1538,4145.641,4138.4615,4128.2051,4131.7949
3989.2308,4134.359,4142.0513,4172.8205,4097.4359,4112.8205,4116.9231,4123.5897,4143.5897,4137.4359,4126.6667,4128.7179
3991.2821,4125.641,4140,4172.3077,4114.8718,4110.2564,4111.2821,4118.4615,4132.3077,4127.6923,4111.7949,4124.1026
3981.0256,4123.5897,4142.0513,4167.1795,4120.5128,4109.7436,4111.2821,4109.7436,4121.0256,4121.5385,4106.6667,4115.3846
3968.7179,4125.1282,4137.9487,4155.8974,4101.5385,4105.1282,4107.1795,4107.6923,4118.9744,4118.4615,4105.1282,4108.2051
3970.7692,4128.2051,4125.1282,4149.7436,4087.6923,4097.9487,4097.9487,4109.2308,4116.4103,4107.6923,4089.2308,4105.1282
3978.4615,4132.3077,4117.4359,4154.359,4095.3846,4101.0256,4100.5128,4113.8462,4115.8974,4103.0769,4087.6923,4101.0256
3983.0769,4134.8718,4127.6923,4157.9487,4113.3333,4114.8718,4109.2308,4122.5641,4122.5641,4117.4359,4105.641,4102.0513
3997.4359,4135.3846,4139.4872,4157.4359,4121.5385,4121.5385,4108.7179,4122.5641,4124.1026,4127.6923,4111.2821,4112.8205
4007.1795,4134.359,4136.9231,4155.8974,4115.3846,4119.4872,4106.1538,4119.4872,4124.6154,4126.6667,4106.1538,4122.0513
3997.4359,4132.8205,4135.8974,4155.8974,4110.2564,4121.5385,4114.359,4128.7179,4133.3333,4134.359,4115.3846,4122.5641
3984.6154,4130.7692,4137.4359,4155.3846,4109.2308,4121.5385,4120.5128,4131.2821,4132.3077,4141.5385,4119.4872,4118.9744
3993.3333,4129.7436,4135.3846,4152.3077,4110.7692,4112.8205,4112.8205,4120.5128,4122.0513,4132.3077,4109.7436,4119.4872
4013.8462,4132.8205,4134.359,4154.8718,4105.1282,4106.1538,4107.6923,4119.4872,4122.5641,4123.5897,4105.1282,4121.5385
4001.0256,4131.7949,4126.1538,4156.4103,4090.7692,4107.1795,4112.8205,4122.5641,4123.5897,4121.0256,4099.4872,4114.359
3982.0513,4128.2051,4112.8205,4147.1795,4081.0256,4107.6923,4116.4103,4120.5128,4115.8974,4117.9487,4089.2308,4102.0513
3996.4103,4131.2821,4112.3077,4144.1026,4079.4872,4106.1538,4113.3333,4124.1026,4112.3077,4117.4359,4087.6923,4096.9231
4002.0513,4129.7436,4115.3846,4147.6923,4081.5385,4106.6667,4110.2564,4122.5641,4109.2308,4112.8205,4089.2308,4092.8205
3982.0513,4125.641,4108.7179,4144.1026,4081.5385,4107.6923,4107.6923,4112.8205,4101.5385,4104.1026,4082.0513,4085.641
3991.2821,4127.1795,4109.2308,4140,4080.5128,4108.7179,4108.2051,4115.8974,4107.6923,4111.2821,4085.641,4093.3333
4012.3077,4132.8205,4111.7949,4144.1026,4082.5641,4108.2051,4109.7436,4124.1026,4115.8974,4126.1538,4101.0256,4106.6667
4010.2564,4135.3846,4106.1538,4147.1795,4080.5128,4106.6667,4107.6923,4120.5128,4107.6923,4120,4100.5128,4106.6667
4015.3846,4130.2564,4110.2564,4150.7692,4078.4615,4107.1795,4111.2821,4118.4615,4105.641,4113.8462,4099.4872,4108.7179
4016.4103,4127.6923,4121.5385,4155.3846,4086.6667,4107.6923,4119.4872,4124.1026,4110.2564,4122.5641,4105.641,4108.7179
3999.4872,4126.1538,4115.8974,4151.2821,4089.7436,4108.2051,4114.359,4122.5641,4103.5897,4125.641,4097.9487,4097.9487
4004.1026,4125.641,4105.1282,4149.7436,4081.5385,4108.2051,4105.641,4117.9487,4095.8974,4118.4615,4090.2564,4096.9231
4024.6154,4131.7949,4110.7692,4151.7949,4086.6667,4107.1795,4110.7692,4118.9744,4096.4103,4116.9231,4100.5128,4107.6923
4027.6923,4128.7179,4120,4145.1282,4106.6667,4113.8462,4117.4359,4122.5641,4098.4615,4123.5897,4108.7179,4109.7436
4028.7179,4124.1026,4121.0256,4140.5128,4110.2564,4123.5897,4118.9744,4124.6154,4099.4872,4125.1282,4108.2051,4115.3846
4036.4103,4130.2564,4120.5128,4144.6154,4097.4359,4117.9487,4121.0256,4124.6154,4103.0769,4124.6154,4113.3333,4123.0769
4034.359,4130.2564,4116.4103,4145.1282,4090.7692,4110.7692,4121.5385,4123.0769,4102.0513,4122.5641,4111.2821,4109.7436
4031.2821,4125.641,4112.3077,4139.4872,4091.2821,4116.4103,4122.5641,4124.1026,4095.8974,4119.4872,4103.5897,4098.4615
4040,4125.1282,4118.4615,4137.4359,4090.2564,4114.8718,4118.9744,4121.5385,4094.359,4120.5128,4108.7179,4115.8974
4041.5385,4128.2051,4120.5128,4139.4872,4085.641,4105.641,4111.2821,4113.8462,4091.2821,4122.0513,4109.7436,4122.5641
4025.1282,4127.6923,4112.8205,4137.4359,4076.4103,4105.641,4113.3333,4113.3333,4088.7179,4117.9487,4101.0256,4106.1538
4025.641,4125.1282,4117.4359,4136.9231,4075.8974,4109.2308,4118.9744,4122.0513,4098.9744,4122.0513,4103.0769,4108.7179
4049.2308,4132.3077,4125.641,4140,4097.4359,4107.6923,4118.9744,4126.1538,4106.6667,4128.2051,4111.7949,4124.1026
4062.0513,4133.8462,4116.9231,4141.5385,4118.4615,4115.3846,4118.4615,4124.1026,4100.5128,4125.1282,4111.7949,4118.9744
4060.5128,4129.2308,4109.2308,4141.0256,4115.8974,4123.0769,4122.0513,4124.1026,4099.4872,4125.1282,4109.2308,4112.8205
4052.8205,4127.1795,4109.7436,4138.9744,4108.2051,4118.4615,4122.5641,4127.6923,4104.1026,4127.6923,4109.7436,4120.5128
4040,4127.1795,4106.6667,4137.4359,4105.641,4117.4359,4121.5385,4123.0769,4097.9487,4122.0513,4108.2051,4114.8718
4038.9744,4130.7692,4109.7436,4139.4872,4097.9487,4118.4615,4121.5385,4110.7692,4088.2051,4115.8974,4101.5385,4104.6154
4056.4103,4132.3077,4117.4359,4138.4615,4093.8462,4114.8718,4119.4872,4108.7179,4090.7692,4120.5128,4102.0513,4115.3846
4064.1026,4131.2821,4116.4103,4132.3077,4096.9231,4115.8974,4120.5128,4120,4100,4128.7179,4115.3846,4128.2051
4065.641,4133.8462,4117.9487,4135.3846,4093.3333,4116.9231,4123.5897,4125.1282,4101.0256,4132.8205,4121.0256,4126.1538
4065.1282,4131.2821,4122.0513,4140,4088.2051,4108.2051,4119.4872,4122.0513,4094.359,4133.8462,4109.7436,4123.5897
4059.4872,4127.1795,4117.9487,4134.359,4096.4103,4106.6667,4113.3333,4121.0256,4092.3077,4131.7949,4103.5897,4124.1026
4071.7949,4134.359,4119.4872,4135.3846,4107.1795,4114.359,4116.4103,4122.5641,4095.3846,4130.2564,4109.7436,4126.6667
4082.5641,4137.9487,4123.0769,4143.0769,4106.1538,4110.7692,4123.5897,4122.0513,4092.8205,4126.1538,4103.0769,4121.5385
4064.1026,4131.7949,4112.8205,4138.9744,4107.6923,4106.6667,4123.5897,4121.5385,4086.6667,4118.4615,4089.7436,4109.7436
4052.3077,4132.8205,4103.5897,4128.2051,4112.8205,4108.2051,4116.4103,4120.5128,4082.5641,4111.7949,4088.2051,4103.5897
4068.2051,4139.4872,4102.0513,4125.641,4105.1282,4104.6154,4109.2308,4117.4359,4074.359,4107.6923,4086.1538,4102.0513
4081.0256,4136.4103,4099.4872,4126.6667,4108.2051,4104.6154,4108.2051,4118.4615,4072.8205,4111.7949,4087.6923,4105.1282
4071.7949,4129.2308,4097.4359,4124.1026,4134.359,4112.3077,4111.7949,4121.5385,4081.5385,4121.0256,4100.5128,4108.7179
4058.9744,4128.7179,4100.5128,4122.0513,4140,4114.8718,4114.359,4116.9231,4085.1282,4122.5641,4104.1026,4107.6923
4062.0513,4125.641,4102.0513,4122.0513,4123.0769,4108.7179,4112.3077,4110.7692,4087.1795,4121.0256,4101.0256,4112.8205
4077.9487,4130.2564,4103.0769,4123.5897,4118.9744,4106.6667,4109.2308,4109.7436,4095.8974,4126.6667,4109.7436,4125.1282
4089.7436,4137.9487,4105.1282,4126.6667,4121.5385,4108.7179,4109.7436,4112.8205,4097.9487,4130.2564,4113.8462,4123.5897
4089.7436,4129.7436,4104.1026,4125.641,4119.4872,4108.2051,4112.3077,4118.9744,4092.3077,4125.1282,4105.641,4118.4615
4080.5128,4124.6154,4095.8974,4121.5385,4121.5385,4107.1795,4112.3077,4121.5385,4090.7692,4120.5128,4104.6154,4117.4359
4080,4131.2821,4094.8718,4122.0513,4121.5385,4107.6923,4110.2564,4114.8718,4089.2308,4123.0769,4107.6923,4116.4103
4090.2564,4133.3333,4104.6154,4123.5897,4117.9487,4109.7436,4108.2051,4113.3333,4085.641,4122.5641,4105.1282,4115.8974
4112.3077,4127.1795,4092.8205,4127.1795,4129.2308,4107.1795,4104.6154,4105.1282,4089.7436,4123.5897,4112.3077,4111.7949
4100.5128,4123.5897,4090.2564,4125.1282,4118.9744,4107.6923,4105.1282,4104.1026,4080.5128,4118.4615,4104.6154,4107.1795
4085.641,4125.1282,4089.7436,4122.5641,4104.6154,4109.2308,4106.6667,4105.1282,4077.9487,4109.2308,4101.0256,4103.0769
4092.3077,4124.6154,4087.6923,4119.4872,4108.7179,4111.2821,4106.1538,4110.2564,4084.6154,4106.6667,4108.2051,4105.1282
4090.7692,4123.0769,4085.641,4118.4615,4123.5897,4115.8974,4111.2821,4119.4872,4086.6667,4109.2308,4106.6667,4105.1282
4095.8974,4124.6154,4098.4615,4121.0256,4128.2051,4122.0513,4118.9744,4124.1026,4092.8205,4122.0513,4108.2051,4107.6923
4108.2051,4128.7179,4100.5128,4114.359,4125.641,4123.0769,4116.9231,4122.5641,4095.8974,4128.2051,4117.9487,4106.6667
4113.3333,4132.3077,4093.3333,4111.2821,4123.5897,4117.4359,4109.7436,4121.0256,4091.7949,4124.6154,4119.4872,4109.7436
4120.5128,4128.2051,4101.5385,4124.1026,4124.1026,4118.4615,4115.3846,4122.5641,4100.5128,4132.8205,4122.5641,4126.1538
4114.359,4123.5897,4101.5385,4127.6923,4123.5897,4120,4124.1026,4124.1026,4105.1282,4137.4359,4125.641,4122.5641
4104.1026,4123.0769,4087.6923,4118.4615,4120,4113.8462,4116.9231,4124.1026,4095.3846,4124.1026,4117.4359,4106.6667
4112.3077,4126.6667,4092.3077,4123.5897,4112.3077,4109.7436,4109.2308,4120.5128,4094.8718,4116.9231,4114.359,4111.7949
4113.8462,4129.7436,4102.0513,4128.7179,4096.9231,4106.6667,4111.2821,4118.9744,4100,4123.0769,4122.5641,4115.3846
4100.5128,4129.7436,4092.8205,4121.5385,4093.8462,4109.7436,4111.7949,4124.1026,4098.9744,4125.641,4123.0769,4104.1026
4109.2308,4130.7692,4087.1795,4121.5385,4113.8462,4118.9744,4111.7949,4124.1026,4102.0513,4122.0513,4119.4872,4108.2051
4126.6667,4129.2308,4094.8718,4125.1282,4125.1282,4117.4359,4109.7436,4112.8205,4106.6667,4124.1026,4120,4122.5641
4126.1538,4127.1795,4103.5897,4124.1026,4121.0256,4109.7436,4109.7436,4111.2821,4104.1026,4127.1795,4121.5385,4122.0513
4125.1282,4129.2308,4102.0513,4123.0769,4117.4359,4114.359,4118.4615,4123.5897,4102.0513,4127.1795,4123.0769,4120.5128
4121.5385,4126.6667,4092.3077,4120.5128,4111.7949,4115.8974,4118.9744,4123.5897,4097.9487,4125.641,4119.4872,4114.8718
4111.2821,4118.9744,4083.5897,4109.7436,4106.1538,4107.6923,4109.2308,4112.8205,4087.6923,4119.4872,4107.1795,4097.4359
4113.3333,4116.9231,4081.0256,4102.5641,4114.359,4111.2821,4112.8205,4116.4103,4087.1795,4114.359,4103.0769,4095.3846
4127.6923,4123.5897,4087.6923,4109.2308,4124.1026,4118.9744,4123.5897,4125.1282,4097.9487,4120,4114.359,4107.6923
4114.8718,4129.7436,4089.7436,4116.9231,4122.5641,4119.4872,4124.6154,4126.6667,4105.1282,4126.1538,4122.0513,4106.6667
4098.4615,4128.7179,4087.1795,4122.5641,4120.5128,4119.4872,4121.0256,4124.6154,4103.0769,4125.641,4118.4615,4102.0513
4120.5128,4129.2308,4095.8974,4128.2051,4125.1282,4118.4615,4120,4122.0513,4100.5128,4129.7436,4120.5128,4112.8205
4136.9231,4130.2564,4102.5641,4130.7692,4138.4615,4118.9744,4120.5128,4123.5897,4106.6667,4138.4615,4133.3333,4122.5641
4124.1026,4129.2308,4097.9487,4132.8205,4142.0513,4123.5897,4122.5641,4126.6667,4113.8462,4141.5385,4142.5641,4123.0769
4123.5897,4132.8205,4097.9487,4133.8462,4124.6154,4118.9744,4114.8718,4119.4872,4107.6923,4133.8462,4135.3846,4118.4615
4141.0256,4131.7949,4098.4615,4130.7692,4112.3077,4110.7692,4108.2051,4110.2564,4094.8718,4124.6154,4125.641,4113.8462
4139.4872,4128.2051,4095.8974,4126.6667,4121.5385,4114.359,4116.9231,4115.8974,4097.4359,4129.7436,4130.7692,4117.9487
4132.8205,4128.2051,4104.6154,4127.1795,4125.641,4122.5641,4124.1026,4122.0513,4108.7179,4139.4872,4140.5128,4127.6923
4144.1026,4127.6923,4112.3077,4129.2308,4116.9231,4122.5641,4121.0256,4120.5128,4115.8974,4140,4140,4128.2051
4140,4131.2821,4099.4872,4126.6667,4117.4359,4121.0256,4122.0513,4122.5641,4117.4359,4133.3333,4137.9487,4119.4872
4130.7692,4129.2308,4088.2051,4122.0513,4122.5641,4118.4615,4123.0769,4122.5641,4109.7436,4126.6667,4133.3333,4112.8205
4137.4359,4123.5897,4087.1795,4119.4872,4115.3846,4116.4103,4119.4872,4118.9744,4100.5128,4120.5128,4119.4872,4106.6667
4131.7949,4126.6667,4086.1538,4121.5385,4110.7692,4118.4615,4119.4872,4119.4872,4103.5897,4116.9231,4116.9231,4103.0769
4117.4359,4129.2308,4089.2308,4121.5385,4120.5128,4121.0256,4122.5641,4121.5385,4113.3333,4120,4131.2821,4115.3846
4134.8718,4125.1282,4094.359,4122.0513,4128.2051,4120.5128,4122.0513,4121.0256,4120,4128.2051,4139.4872,4135.8974
4153.8462,4124.6154,4094.359,4125.1282,4126.6667,4117.4359,4119.4872,4121.0256,4121.0256,4131.2821,4139.4872,4134.8718
4145.641,4129.2308,4095.8974,4124.6154,4119.4872,4116.9231,4118.9744,4121.0256,4114.359,4127.1795,4138.4615,4118.9744
4147.1795,4129.2308,4100,4117.9487,4116.9231,4122.0513,4121.0256,4121.0256,4108.2051,4132.3077,4138.9744,4124.6154
4158.9744,4125.641,4093.3333,4113.3333,4128.2051,4125.1282,4122.5641,4121.5385,4112.8205,4140.5128,4139.4872,4142.0513
4148.2051,4127.1795,4088.7179,4118.9744,4139.4872,4123.5897,4122.5641,4123.0769,4118.9744,4136.9231,4138.4615,4138.9744
4141.5385,4129.7436,4094.8718,4125.1282,4137.9487,4125.641,4124.6154,4123.5897,4122.5641,4137.4359,4140.5128,4127.6923
4155.3846,4131.7949,4095.8974,4121.5385,4133.8462,4126.1538,4125.641,4123.5897,4122.5641,4143.0769,4143.0769,4127.6923
4159.4872,4131.7949,4097.9487,4116.4103,4136.9231,4122.0513,4123.5897,4125.641,4120.5128,4141.0256,4143.0769,4134.8718
4155.8974,4127.6923,4106.1538,4121.0256,4138.9744,4120.5128,4121.0256,4126.6667,4120,4140,4141.5385,4142.5641
4148.2051,4124.1026,4102.0513,4124.1026,4136.9231,4122.5641,4120.5128,4121.0256,4112.3077,4135.8974,4132.8205,4134.8718
4144.6154,4120.5128,4092.8205,4117.9487,4140.5128,4127.1795,4123.0769,4118.9744,4105.641,4126.1538,4125.641,4122.5641
4152.8205,4117.9487,4095.8974,4110.2564,4142.5641,4129.2308,4124.6154,4123.0769,4108.7179,4124.1026,4127.1795,4126.1538
4151.7949,4119.4872,4096.4103,4106.6667,4140.5128,4125.641,4124.6154,4122.5641,4104.1026,4121.5385,4124.6154,4118.4615
4144.6154,4118.9744,4091.2821,4108.2051,4135.8974,4122.0513,4122.5641,4118.9744,4094.8718,4116.9231,4116.9231,4104.1026
4149.2308,4121.5385,4094.8718,4111.2821,4126.1538,4122.5641,4122.5641,4120.5128,4101.5385,4124.6154,4123.5897,4113.8462
4155.8974,4128.2051,4099.4872,4111.7949,4121.0256,4123.0769,4124.1026,4126.6667,4117.4359,4137.4359,4136.4103,4126.1538
4149.7436,4129.7436,4101.0256,4111.2821,4130.7692,4123.0769,4124.6154,4128.7179,4124.1026,4138.9744,4138.4615,4123.0769
4152.8205,4130.7692,4103.0769,4111.2821,4135.8974,4121.0256,4125.641,4125.641,4120,4136.4103,4139.4872,4126.1538
4155.8974,4127.6923,4095.3846,4108.2051,4123.5897,4114.359,4121.0256,4121.5385,4112.8205,4131.2821,4139.4872,4124.1026
4148.7179,4125.641,4087.6923,4106.6667,4119.4872,4111.2821,4111.7949,4114.8718,4108.7179,4123.0769,4129.7436,4111.7949
4154.359,4131.2821,4091.7949,4108.2051,4122.5641,4114.8718,4111.7949,4112.3077,4105.641,4123.5897,4119.4872,4116.4103
4158.9744,4131.7949,4097.9487,4107.6923,4120.5128,4117.9487,4118.9744,4117.9487,4103.0769,4125.641,4122.5641,4124.6154
4151.7949,4128.2051,4097.4359,4109.2308,4123.0769,4121.5385,4124.6154,4123.5897,4107.6923,4126.6667,4134.359,4121.5385
4151.7949,4131.7949,4094.359,4112.3077,4129.2308,4125.1282,4124.6154,4122.5641,4112.3077,4133.8462,4134.8718,4123.5897
4158.4615,4131.2821,4092.3077,4110.2564,4128.2051,4125.641,4123.0769,4121.0256,4111.2821,4137.4359,4127.1795,4127.1795
4153.8462,4126.6667,4091.7949,4105.1282,4122.5641,4124.6154,4129.2308,4124.1026,4114.359,4134.359,4125.641,4123.0769
4158.9744,4128.7179,4091.7949,4105.1282,4123.5897,4125.641,4134.359,4127.1795,4124.1026,4136.9231,4129.2308,4129.2308
4170.7692,4131.7949,4095.8974,4108.2051,4124.6154,4127.1795,4128.7179,4126.1538,4126.1538,4141.5385,4129.2308,4138.4615
4151.2821,4127.6923,4096.4103,4108.2051,4112.8205,4123.0769,4122.0513,4123.0769,4114.8718,4133.8462,4123.0769,4130.2564
4135.3846,4126.1538,4089.2308,4104.6154,4110.2564,4119.4872,4123.0769,4122.5641,4107.6923,4126.6667,4120,4118.4615
4157.4359,4128.2051,4088.2051,4103.5897,4125.1282,4124.6154,4125.1282,4125.1282,4113.8462,4132.8205,4124.1026,4120.5128
4171.7949,4127.6923,4094.359,4104.6154,4129.7436,4127.6923,4126.6667,4126.1538,4123.5897,4140,4129.2308,4131.2821
4167.1795,4129.2308,4092.8205,4104.1026,4120.5128,4122.5641,4126.6667,4124.1026,4121.0256,4138.9744,4125.641,4131.7949
4169.2308,4129.7436,4089.2308,4105.1282,4123.5897,4123.5897,4122.0513,4123.5897,4116.9231,4136.4103,4125.641,4129.2308
4169.2308,4128.7179,4094.8718,4106.6667,4126.1538,4130.7692,4128.7179,4127.1795,4122.0513,4138.4615,4132.8205,4137.9487
4164.6154,4129.7436,4095.3846,4107.1795,4113.3333,4128.7179,4140.5128,4131.2821,4124.6154,4140,4130.7692,4138.4615
4166.6667,4128.7179,4082.0513,4109.2308,4104.1026,4124.1026,4135.3846,4126.1538,4115.8974,4131.7949,4122.0513,4121.5385
4175.8974,4126.1538,4072.8205,4116.4103,4102.5641,4123.5897,4123.5897,4118.9744,4107.1795,4124.6154,4123.0769,4121.0256
4187.1795,4127.6923,4082.0513,4122.5641,4109.2308,4124.1026,4123.5897,4120.5128,4109.7436,4133.8462,4135.3846,4139.4872
4185.641,4127.6923,4085.1282,4124.1026,4120,4123.0769,4127.1795,4123.5897,4111.7949,4140,4138.9744,4134.359
4171.7949,4123.0769,4074.8718,4121.5385,4125.1282,4124.1026,4128.2051,4124.6154,4109.2308,4126.6667,4132.8205,4118.4615
4168.7179,4121.5385,4074.8718,4123.0769,4123.5897,4127.1795,4133.8462,4125.1282,4109.7436,4122.0513,4131.2821,4124.1026
4170.2564,4124.6154,4080.5128,4125.1282,4122.0513,4128.2051,4138.4615,4124.6154,4108.2051,4129.7436,4128.7179,4125.641
4161.0256,4121.5385,4075.8974,4116.9231,4123.5897,4128.2051,4135.3846,4122.0513,4104.6154,4128.7179,4122.5641,4114.359
4159.4872,4123.5897,4069.2308,4108.7179,4120.5128,4129.7436,4133.3333,4124.1026,4107.6923,4124.6154,4123.5897,4115.8974
4165.1282,4137.4359,4072.8205,4114.359,4112.3077,4129.7436,4135.8974,4125.641,4111.7949,4124.6154,4125.641,4125.1282
4171.2821,4133.8462,4076.9231,4122.0513,4106.1538,4127.1795,4136.9231,4129.2308,4109.7436,4129.7436,4124.6154,4123.0769
4179.4872,4122.0513,4073.8462,4118.9744,4104.1026,4125.1282,4131.2821,4128.7179,4106.1538,4135.8974,4125.1282,4120
4177.4359,4128.2051,4073.8462,4118.4615,4102.5641,4123.5897,4125.641,4123.0769,4105.1282,4137.4359,4124.1026,4122.5641
4171.2821,4134.8718,4085.641,4123.5897,4108.7179,4125.641,4131.7949,4128.7179,4106.6667,4136.4103,4125.641,4125.641
4170.2564,4132.3077,4091.7949,4123.0769,4121.0256,4128.7179,4139.4872,4135.3846,4108.2051,4137.9487,4128.2051,4123.5897
4172.8205,4130.2564,4083.0769,4120.5128,4117.4359,4126.6667,4137.4359,4129.7436,4108.2051,4136.9231,4128.2051,4123.0769
4177.9487,4131.2821,4081.5385,4121.5385,4109.2308,4125.1282,4135.8974,4127.1795,4106.1538,4134.8718,4133.3333,4130.2564
4185.1282,4131.7949,4092.3077,4123.0769,4118.9744,4128.7179,4137.9487,4134.359,4106.6667,4139.4872,4141.0256,4137.9487
4190.7692,4129.7436,4092.3077,4122.0513,4127.1795,4126.1538,4136.9231,4128.7179,4108.7179,4137.9487,4134.8718,4137.9487
4189.2308,4132.8205,4083.0769,4122.5641,4120.5128,4124.1026,4136.9231,4121.5385,4106.6667,4124.6154,4128.7179,4129.2308
4185.1282,4133.8462,4083.5897,4125.1282,4122.0513,4131.2821,4137.9487,4132.8205,4107.1795,4124.6154,4138.4615,4122.0513
4188.7179,4128.7179,4090.2564,4127.1795,4122.5641,4133.3333,4136.9231,4135.8974,4111.2821,4137.4359,4141.0256,4128.7179
4201.0256,4128.2051,4092.8205,4127.1795,4110.7692,4124.6154,4134.8718,4127.6923,4110.2564,4141.0256,4135.3846,4141.5385
4062.5641,4130.7692,3925.1282,4121.5385,4116.9231,4121.5385,4122.5641,4120.5128,4117.4359,4126.6667,4121.5385,4106.6667
4066.1538,4128.7179,3933.3333,4125.641,4121.0256,4127.1795,4122.5641,4123.5897,4121.5385,4126.1538,4114.359,4104.6154
4072.8205,4131.2821,3948.2051,4127.1795,4122.0513,4127.6923,4122.0513,4122.5641,4122.0513,4129.7436,4105.641,4111.2821
4083.0769,4138.9744,3947.1795,4130.2564,4128.7179,4123.0769,4122.0513,4122.5641,4120,4136.4103,4111.7949,4125.1282
4094.8718,4138.9744,3952.8205,4139.4872,4139.4872,4123.5897,4121.5385,4126.1538,4122.5641,4142.0513,4125.1282,4130.7692
4093.3333,4133.3333,3959.4872,4141.5385,4133.3333,4126.1538,4122.0513,4126.1538,4125.1282,4142.0513,4126.6667,4125.641
4075.3846,4126.6667,3957.4359,4130.2564,4121.5385,4128.7179,4124.6154,4124.1026,4118.9744,4135.8974,4120.5128,4122.0513
4071.7949,4124.6154,3957.4359,4125.1282,4120,4127.6923,4126.1538,4124.6154,4115.8974,4135.3846,4118.9744,4121.0256
4091.2821,4135.3846,3965.641,4134.359,4121.5385,4126.6667,4126.1538,4127.1795,4124.6154,4144.6154,4131.2821,4128.2051
4094.8718,4140,3976.4103,4141.5385,4119.4872,4128.2051,4126.6667,4129.2308,4131.7949,4148.2051,4141.5385,4141.0256
4074.8718,4131.2821,3976.4103,4137.9487,4121.5385,4126.1538,4125.641,4126.1538,4124.6154,4140,4132.8205,4138.9744
4076.9231,4131.7949,3972.3077,4136.4103,4127.1795,4128.2051,4123.0769,4123.0769,4117.9487,4132.8205,4127.1795,4128.7179
4089.7436,4136.9231,3973.3333,4134.8718,4127.1795,4136.4103,4125.641,4130.2564,4123.0769,4131.2821,4135.8974,4126.1538
4077.4359,4135.8974,3973.3333,4129.7436,4124.1026,4134.359,4127.1795,4134.8718,4123.0769,4131.2821,4132.3077,4121.0256
4073.8462,4136.9231,3977.9487,4132.3077,4125.1282,4125.1282,4126.1538,4128.7179,4119.4872,4135.8974,4121.5385,4119.4872
4094.8718,4136.9231,3991.2821,4138.9744,4126.6667,4123.5897,4126.6667,4125.641,4129.7436,4139.4872,4131.2821,4136.9231
4102.0513,4133.3333,3994.8718,4136.4103,4118.9744,4126.1538,4125.641,4127.6923,4136.4103,4139.4872,4142.5641,4143.5897
4090.2564,4136.4103,3993.3333,4133.3333,4115.8974,4124.1026,4121.5385,4127.1795,4128.2051,4140,4134.8718,4130.2564
4092.3077,4136.9231,3999.4872,4137.4359,4118.9744,4124.6154,4125.641,4125.1282,4123.0769,4139.4872,4131.2821,4129.2308
4090.2564,4129.2308,4002.0513,4134.8718,4114.359,4123.0769,4127.1795,4125.1282,4123.5897,4139.4872,4134.359,4133.3333
4078.9744,4131.2821,4002.0513,4130.2564,4115.8974,4123.0769,4122.0513,4123.5897,4122.5641,4142.5641,4133.3333,4130.2564
4089.7436,4138.9744,4010.7692,4136.9231,4125.641,4129.7436,4122.0513,4125.1282,4123.0769,4144.1026,4132.3077,4132.8205
4109.2308,4138.4615,4015.3846,4142.0513,4127.6923,4137.9487,4125.1282,4127.1795,4127.6923,4143.0769,4138.9744,4135.8974
4104.6154,4133.3333,4015.8974,4140.5128,4126.1538,4138.4615,4123.5897,4127.6923,4135.8974,4147.1795,4143.5897,4137.9487
4092.8205,4130.7692,4018.4615,4132.8205,4118.4615,4130.7692,4123.0769,4125.641,4137.9487,4149.2308,4142.5641,4138.9744
4091.2821,4131.2821,4015.3846,4122.5641,4100,4121.0256,4121.0256,4120.5128,4127.6923,4142.0513,4137.9487,4131.2821
4086.6667,4134.359,4011.7949,4125.641,4097.4359,4120,4118.9744,4120,4121.0256,4137.4359,4132.8205,4126.1538
4093.8462,4136.4103,4020.5128,4138.4615,4115.8974,4131.7949,4127.6923,4128.7179,4126.6667,4140.5128,4135.3846,4131.2821
4109.7436,4136.4103,4028.2051,4136.9231,4116.9231,4140,4136.4103,4134.359,4133.8462,4147.6923,4140.5128,4132.8205
4098.4615,4137.4359,4022.0513,4126.1538,4103.5897,4137.9487,4136.4103,4136.4103,4133.3333,4149.2308,4140,4132.8205
4085.641,4137.9487,4020.5128,4123.5897,4105.641,4135.3846,4135.3846,4141.0256,4129.2308,4144.1026,4141.5385,4137.9487
4092.8205,4134.359,4023.5897,4125.1282,4109.2308,4130.2564,4129.7436,4136.4103,4124.1026,4136.9231,4138.9744,4132.8205
4089.2308,4129.7436,4021.0256,4123.0769,4103.0769,4122.5641,4121.5385,4123.5897,4119.4872,4135.3846,4125.1282,4117.9487
4078.4615,4133.3333,4023.0769,4120.5128,4106.6667,4121.0256,4121.0256,4119.4872,4117.4359,4136.4103,4117.4359,4113.8462
4087.6923,4141.0256,4034.359,4124.6154,4122.5641,4125.1282,4125.1282,4124.6154,4118.4615,4136.9231,4122.0513,4120
4100,4138.9744,4044.1026,4132.8205,4134.8718,4128.2051,4124.6154,4124.1026,4117.4359,4139.4872,4123.5897,4127.1795
4103.5897,4132.3077,4044.6154,4135.3846,4134.8718,4130.2564,4123.5897,4122.5641,4117.4359,4140,4122.5641,4130.2564
4104.6154,4130.7692,4047.1795,4135.8974,4128.2051,4129.2308,4125.1282,4126.1538,4123.0769,4141.5385,4127.6923,4136.9231
4096.4103,4128.2051,4055.8974,4135.8974,4119.4872,4124.6154,4124.1026,4126.1538,4124.1026,4142.0513,4126.1538,4142.5641
4085.641,4129.2308,4059.4872,4130.2564,4118.4615,4123.0769,4123.0769,4123.0769,4118.4615,4140.5128,4121.0256,4133.8462
4095.3846,4136.9231,4053.3333,4130.7692,4127.6923,4125.1282,4126.1538,4128.7179,4122.5641,4147.1795,4130.7692,4130.2564
4110.7692,4135.8974,4050.2564,4137.9487,4128.2051,4126.1538,4129.2308,4137.4359,4128.7179,4155.8974,4140,4141.5385
4108.2051,4132.3077,4058.9744,4138.4615,4120.5128,4124.1026,4128.7179,4137.9487,4124.1026,4152.8205,4130.7692,4145.1282
4103.0769,4139.4872,4061.0256,4135.3846,4123.5897,4124.6154,4132.3077,4132.3077,4120,4144.6154,4121.5385,4138.9744
4107.1795,4150.2564,4057.4359,4137.9487,4137.4359,4132.3077,4139.4872,4129.7436,4121.0256,4140.5128,4123.0769,4136.4103
4105.641,4154.359,4058.4615,4137.9487,4141.0256,4139.4872,4134.359,4127.6923,4122.0513,4140,4123.0769,4133.3333
4100,4150.7692,4060,4135.8974,4132.3077,4134.8718,4123.5897,4126.1538,4126.6667,4145.1282,4128.2051,4128.7179
4105.1282,4142.5641,4064.1026,4139.4872,4131.2821,4126.6667,4129.7436,4134.8718,4135.8974,4151.2821,4135.8974,4135.8974
4110.2564,4136.4103,4070.2564,4139.4872,4136.4103,4125.641,4135.8974,4140.5128,4137.9487,4147.1795,4130.2564,4140.5128
4108.2051,4145.1282,4071.7949,4133.3333,4137.4359,4125.641,4126.6667,4133.8462,4134.359,4144.1026,4125.1282,4136.9231
4106.6667,4154.359,4073.8462,4134.8718,4140,4126.1538,4125.641,4130.7692,4137.4359,4152.8205,4135.3846,4141.5385
4107.6923,4154.8718,4078.9744,4141.5385,4150.2564,4135.3846,4137.4359,4135.8974,4137.9487,4157.4359,4142.0513,4145.641
4108.2051,4154.8718,4077.4359,4132.8205,4155.3846,4137.4359,4135.3846,4130.2564,4129.7436,4151.2821,4133.3333,4140.5128
4110.7692,4155.3846,4073.8462,4121.5385,4141.5385,4127.1795,4124.1026,4120.5128,4126.6667,4147.6923,4126.1538,4135.3846
4111.7949,4154.8718,4077.9487,4129.2308,4133.8462,4127.6923,4128.7179,4127.6923,4131.7949,4148.2051,4129.7436,4135.3846
4111.2821,4150.7692,4079.4872,4141.5385,4146.6667,4138.9744,4138.4615,4138.9744,4137.4359,4150.7692,4135.8974,4140
4109.2308,4151.7949,4076.4103,4136.4103,4156.9231,4139.4872,4134.8718,4134.8718,4136.9231,4152.8205,4137.9487,4141.5385
4104.1026,4156.9231,4077.9487,4127.1795,4152.8205,4134.359,4126.6667,4128.7179,4135.3846,4149.7436,4134.359,4137.9487
4102.0513,4155.8974,4081.0256,4126.6667,4150.7692,4138.4615,4131.2821,4133.8462,4137.9487,4141.0256,4130.2564,4136.4103
4105.641,4152.3077,4077.9487,4123.5897,4157.4359,4143.5897,4139.4872,4137.4359,4136.4103,4136.9231,4128.7179,4134.359
4108.7179,4154.8718,4080,4121.0256,4152.3077,4141.0256,4138.4615,4133.3333,4130.7692,4141.5385,4129.7436,4134.359
4106.6667,4149.2308,4090.7692,4125.1282,4137.9487,4136.9231,4136.4103,4130.2564,4132.8205,4141.5385,4128.2051,4138.9744
4100.5128,4141.5385,4087.1795,4125.641,4137.9487,4137.4359,4136.9231,4125.641,4132.8205,4135.8974,4123.0769,4133.3333
4094.359,4147.1795,4080,4122.5641,4144.6154,4137.4359,4133.8462,4124.6154,4126.1538,4135.3846,4120.5128,4123.0769
4098.4615,4150.7692,4086.6667,4125.641,4142.5641,4136.4103,4134.359,4133.8462,4130.2564,4138.9744,4123.0769,4130.2564
4110.2564,4146.6667,4087.1795,4130.7692,4140.5128,4138.4615,4137.4359,4142.5641,4140,4140.5128,4132.8205,4141.5385
4113.8462,4143.0769,4076.4103,4126.6667,4144.1026,4132.3077,4128.7179,4139.4872,4138.4615,4140,4135.8974,4136.4103
4108.7179,4141.5385,4078.4615,4122.5641,4144.6154,4125.1282,4122.0513,4134.359,4137.4359,4137.9487,4130.7692,4131.7949
4103.5897,4140.5128,4086.6667,4127.1795,4143.0769,4132.3077,4129.7436,4131.7949,4142.5641,4138.4615,4129.2308,4138.9744
4090.7692,4138.9744,4082.5641,4127.6923,4138.9744,4134.8718,4132.8205,4127.1795,4137.9487,4136.4103,4124.1026,4138.4615
4082.5641,4137.9487,4080.5128,4118.9744,4134.8718,4128.2051,4124.1026,4121.0256,4128.7179,4125.641,4121.5385,4128.2051
4094.359,4142.0513,4085.1282,4117.4359,4135.8974,4133.8462,4122.5641,4122.5641,4130.7692,4123.5897,4126.6667,4124.1026
4104.1026,4147.1795,4086.1538,4124.1026,4139.4872,4141.0256,4134.8718,4128.7179,4135.8974,4132.8205,4124.6154,4123.5897
4106.1538,4148.2051,4087.1795,4125.641,4142.5641,4135.8974,4137.4359,4127.1795,4138.9744,4137.4359,4123.5897,4128.2051
4121.0256,4150.7692,4093.3333,4124.1026,4151.2821,4134.8718,4129.7436,4127.1795,4140,4138.9744,4138.9744,4138.9744
4128.7179,4152.3077,4100,4129.2308,4157.9487,4140.5128,4129.7436,4131.7949,4141.0256,4143.0769,4144.1026,4146.1538
4111.2821,4142.5641,4100,4129.2308,4150.2564,4140.5128,4131.7949,4129.7436,4139.4872,4141.0256,4131.2821,4140.5128
4101.0256,4137.9487,4096.4103,4122.5641,4138.9744,4135.8974,4127.1795,4124.6154,4138.4615,4136.9231,4124.6154,4135.3846
4106.1538,4144.1026,4093.8462,4120,4138.4615,4128.2051,4121.5385,4123.0769,4139.4872,4137.4359,4124.6154,4135.3846
4104.6154,4139.4872,4091.2821,4120,4147.1795,4128.7179,4122.0513,4124.1026,4136.4103,4137.9487,4120.5128,4130.2564
4107.1795,4126.6667,4093.8462,4120.5128,4154.359,4137.9487,4124.1026,4123.5897,4136.9231,4139.4872,4120.5128,4130.2564
4109.2308,4119.4872,4094.8718,4122.5641,4149.2308,4136.9231,4125.1282,4123.0769,4141.0256,4140.5128,4125.641,4136.9231
4086.1538,4117.9487,4088.2051,4121.5385,4138.4615,4124.1026,4123.0769,4121.0256,4129.7436,4134.8718,4122.5641,4127.6923
4075.8974,4117.4359,4090.2564,4120.5128,4133.3333,4123.5897,4121.5385,4123.5897,4121.0256,4132.8205,4118.4615,4111.7949
4108.2051,4122.0513,4104.1026,4126.1538,4136.4103,4136.4103,4127.1795,4133.8462,4135.8974,4142.0513,4130.2564,4126.1538
4126.1538,4124.6154,4112.3077,4128.7179,4145.1282,4139.4872,4129.2308,4138.9744,4147.6923,4152.3077,4143.0769,4151.2821
4110.2564,4122.5641,4111.7949,4131.7949,4149.2308,4133.8462,4123.0769,4136.9231,4141.0256,4155.3846,4143.5897,4148.2051
4104.1026,4123.5897,4110.7692,4138.4615,4144.6154,4135.3846,4123.5897,4134.8718,4141.0256,4150.7692,4140,4138.4615
4106.1538,4121.0256,4107.6923,4132.3077,4139.4872,4133.8462,4128.7179,4130.2564,4143.0769,4140.5128,4129.2308,4136.9231
4100,4119.4872,4102.0513,4118.4615,4136.4103,4124.1026,4126.6667,4124.6154,4135.8974,4133.3333,4117.4359,4127.1795
4103.5897,4124.6154,4104.6154,4117.9487,4137.4359,4129.7436,4129.7436,4127.1795,4135.8974,4137.9487,4121.0256,4121.5385
4112.8205,4124.6154,4107.6923,4123.0769,4144.1026,4141.0256,4134.359,4125.641,4138.4615,4142.5641,4129.2308,4131.7949
4104.6154,4122.0513,4102.0513,4121.5385,4142.0513,4132.3077,4126.1538,4117.4359,4126.6667,4129.2308,4121.0256,4127.1795
4089.7436,4124.6154,4100,4119.4872,4134.359,4124.1026,4118.9744,4119.4872,4118.9744,4121.5385,4113.3333,4112.8205
4085.641,4122.5641,4107.1795,4122.0513,4140,4133.8462,4125.641,4125.641,4132.3077,4133.3333,4124.1026,4117.9487
4098.4615,4117.4359,4108.7179,4125.1282,4146.1538,4140.5128,4131.2821,4128.7179,4137.4359,4140,4133.3333,4128.2051
4108.2051,4120,4103.0769,4121.5385,4137.9487,4136.4103,4131.7949,4133.3333,4125.641,4137.9487,4127.6923,4127.6923
4096.4103,4121.0256,4103.0769,4112.3077,4128.7179,4136.9231,4135.3846,4137.4359,4125.1282,4139.4872,4126.1538,4130.2564
4087.1795,4120,4106.6667,4109.2308,4128.7179,4139.4872,4137.9487,4137.9487,4135.8974,4143.0769,4135.8974,4141.0256
4093.3333,4120.5128,4104.6154,4109.2308,4118.4615,4133.3333,4132.8205,4135.3846,4132.3077,4141.5385,4136.9231,4137.9487
4092.8205,4119.4872,4098.4615,4105.641,4103.5897,4124.1026,4123.5897,4128.7179,4120,4132.8205,4120,4124.1026
4081.0256,4118.4615,4101.0256,4104.6154,4110.7692,4120.5128,4120.5128,4121.0256,4118.4615,4124.1026,4108.2051,4119.4872
4082.0513,4121.0256,4110.7692,4107.1795,4127.1795,4122.0513,4124.6154,4122.0513,4121.5385,4129.2308,4113.3333,4120.5128
4094.359,4123.5897,4111.7949,4109.7436,4125.1282,4122.0513,4127.6923,4131.7949,4122.0513,4136.9231,4123.0769,4120
4097.9487,4121.5385,4112.3077,4110.7692,4116.4103,4120.5128,4127.1795,4138.9744,4125.1282,4137.9487,4126.6667,4128.7179
4095.3846,4122.0513,4115.8974,4108.7179,4122.5641,4122.0513,4126.6667,4134.8718,4128.2051,4136.9231,4127.1795,4135.8974
4089.2308,4122.5641,4112.3077,4106.6667,4120,4122.0513,4122.0513,4123.0769,4123.5897,4131.7949,4121.5385,4127.6923
4083.5897,4118.4615,4103.0769,4106.6667,4106.6667,4118.9744,4114.8718,4120,4111.2821,4121.5385,4110.2564,4117.4359
4085.641,4117.4359,4103.0769,4107.1795,4110.2564,4118.4615,4115.3846,4123.5897,4109.2308,4121.5385,4110.7692,4118.4615
4095.3846,4124.1026,4114.359,4107.1795,4124.6154,4123.5897,4122.0513,4123.5897,4121.0256,4138.4615,4124.1026,4127.6923
4099.4872,4126.6667,4124.1026,4108.7179,4127.1795,4127.6923,4124.1026,4125.1282,4127.6923,4149.2308,4131.7949,4136.4103
4096.4103,4121.5385,4120,4107.1795,4123.5897,4126.6667,4123.0769,4127.6923,4125.1282,4143.5897,4127.6923,4140.5128
4093.3333,4121.5385,4115.8974,4104.1026,4131.2821,4124.6154,4126.6667,4126.1538,4124.6154,4139.4872,4122.0513,4138.4615
4091.7949,4124.1026,4120,4108.2051,4142.0513,4126.1538,4129.2308,4124.6154,4124.6154,4141.5385,4121.5385,4132.8205
4100,4123.0769,4122.0513,4113.8462,4147.1795,4129.2308,4127.1795,4126.1538,4122.5641,4140,4123.0769,4131.2821
4105.641,4124.6154,4122.0513,4113.3333,4137.9487,4125.641,4126.1538,4126.1538,4123.5897,4139.4872,4125.1282,4134.8718
4095.3846,4127.1795,4124.1026,4112.3077,4124.1026,4121.5385,4129.7436,4123.5897,4122.0513,4138.9744,4123.5897,4133.3333
4089.7436,4123.5897,4124.1026,4118.9744,4130.7692,4129.7436,4137.4359,4123.5897,4117.9487,4131.2821,4118.4615,4120.5128
4102.5641,4126.1538,4122.0513,4124.6154,4144.6154,4137.9487,4137.4359,4124.1026,4120,4128.7179,4121.5385,4114.8718
4111.7949,4132.3077,4125.1282,4125.641,4143.5897,4134.359,4130.2564,4123.0769,4128.2051,4136.4103,4131.7949,4130.2564
4103.5897,4128.2051,4126.6667,4122.0513,4134.359,4132.3077,4129.7436,4123.0769,4130.2564,4138.4615,4131.2821,4141.0256
4091.7949,4120,4126.1538,4112.8205,4132.8205,4135.3846,4135.8974,4124.1026,4122.0513,4136.4103,4122.0513,4128.2051
4087.6923,4121.0256,4128.7179,4114.8718,4138.9744,4131.7949,4135.3846,4125.1282,4116.9231,4137.9487,4121.5385,4117.9487
4093.3333,4127.1795,4127.1795,4122.0513,4136.4103,4124.1026,4125.641,4124.1026,4115.8974,4134.8718,4124.6154,4125.1282
4093.8462,4125.1282,4121.0256,4114.359,4124.1026,4120.5128,4120,4118.9744,4116.4103,4127.6923,4121.5385,4121.5385
4085.1282,4121.5385,4116.9231,4110.7692,4126.6667,4120,4121.0256,4118.4615,4118.4615,4129.7436,4118.9744,4108.7179
4094.359,4128.2051,4121.5385,4122.0513,4141.0256,4123.0769,4121.5385,4124.6154,4123.5897,4138.9744,4124.6154,4116.4103
4109.2308,4132.3077,4128.2051,4124.6154,4138.4615,4127.6923,4125.1282,4125.1282,4127.1795,4141.5385,4134.359,4136.4103
4101.5385,4127.6923,4129.7436,4120,4126.6667,4128.7179,4130.7692,4124.1026,4127.1795,4138.4615,4137.9487,4141.0256
4087.1795,4124.1026,4124.6154,4115.3846,4124.6154,4125.641,4127.1795,4125.641,4123.5897,4135.8974,4131.2821,4130.2564
4088.2051,4125.1282,4120.5128,4107.6923,4126.1538,4123.0769,4124.1026,4125.641,4115.3846,4135.3846,4125.1282,4130.7692
4096.4103,4127.6923,4124.6154,4113.8462,4120.5128,4123.0769,4129.7436,4127.1795,4111.7949,4138.4615,4126.6667,4143.5897
4096.4103,4128.2051,4124.1026,4120.5128,4117.9487,4123.5897,4129.2308,4127.1795,4116.9231,4138.4615,4128.2051,4143.0769
4088.2051,4127.6923,4121.0256,4108.2051,4126.6667,4125.1282,4127.1795,4124.6154,4121.0256,4135.3846,4128.2051,4134.359
4088.7179,4126.6667,4123.5897,4109.7436,4134.359,4124.6154,4132.3077,4125.641,4123.5897,4137.4359,4135.3846,4138.4615
4093.8462,4124.1026,4123.5897,4122.5641,4132.3077,4124.6154,4131.2821,4125.641,4126.6667,4136.4103,4140,4141.5385
4092.3077,4126.1538,4121.0256,4113.3333,4133.8462,4127.1795,4125.1282,4123.0769,4124.1026,4129.2308,4130.7692,4135.8974
4093.3333,4129.7436,4123.5897,4104.1026,4138.4615,4126.1538,4127.1795,4123.5897,4117.9487,4129.2308,4123.5897,4135.8974
4094.359,4130.7692,4127.6923,4115.8974,4130.2564,4121.5385,4125.641,4123.5897,4115.8974,4134.8718,4129.2308,4136.9231
4096.9231,4133.8462,4132.8205,4122.5641,4124.1026,4126.6667,4124.1026,4122.0513,4120,4137.9487,4140,4135.8974
4117.4359,4135.3846,4140,4122.0513,4131.2821,4138.9744,4134.8718,4124.6154,4124.1026,4140.5128,4142.0513,4140
4125.641,4127.6923,4142.5641,4126.6667,4137.9487,4135.8974,4134.359,4121.5385,4123.0769,4140,4134.8718,4140.5128
4100,4122.5641,4135.8974,4124.1026,4134.359,4124.6154,4122.0513,4114.359,4119.4872,4136.4103,4131.2821,4134.8718
4088.2051,4126.6667,4132.3077,4118.9744,4128.7179,4126.1538,4124.6154,4117.9487,4121.0256,4138.4615,4137.9487,4141.0256
4106.1538,4129.7436,4138.4615,4123.0769,4128.2051,4131.2821,4129.7436,4125.641,4126.1538,4146.1538,4144.1026,4152.3077
4111.7949,4127.6923,4135.8974,4123.5897,4125.1282,4124.1026,4123.0769,4123.0769,4123.5897,4144.6154,4138.4615,4145.641
4098.4615,4125.1282,4125.1282,4116.9231,4121.0256,4118.9744,4118.4615,4117.9487,4119.4872,4135.8974,4134.359,4137.4359
4092.8205,4121.5385,4129.2308,4116.9231,4127.1795,4125.641,4122.5641,4120,4124.1026,4139.4872,4136.4103,4139.4872
4100.5128,4126.1538,4137.4359,4122.5641,4135.8974,4127.1795,4125.641,4123.5897,4128.2051,4146.6667,4136.9231,4137.4359
4109.7436,4135.3846,4137.9487,4122.5641,4135.8974,4121.5385,4123.0769,4124.6154,4125.1282,4147.1795,4135.8974,4135.8974
4108.2051,4131.7949,4138.9744,4121.5385,4134.8718,4123.0769,4122.0513,4126.1538,4122.5641,4146.1538,4138.9744,4140
4100.5128,4123.5897,4136.9231,4122.0513,4132.3077,4128.2051,4129.7436,4134.359,4123.5897,4143.5897,4139.4872,4138.9744
4102.5641,4124.6154,4126.6667,4115.3846,4123.5897,4129.7436,4133.3333,4136.9231,4121.5385,4138.4615,4132.8205,4135.3846
4105.1282,4130.2564,4122.5641,4110.2564,4125.1282,4131.2821,4129.7436,4131.2821,4119.4872,4135.3846,4130.7692,4136.4103
4095.3846,4133.3333,4129.7436,4116.4103,4137.9487,4140,4132.3077,4131.7949,4123.5897,4137.4359,4136.9231,4138.9744
4090.7692,4130.7692,4134.8718,4123.0769,4142.0513,4142.5641,4138.9744,4134.359,4127.6923,4137.9487,4141.0256,4141.0256
4103.0769,4129.2308,4136.9231,4121.0256,4135.3846,4133.3333,4136.4103,4125.641,4126.6667,4138.9744,4142.0513,4141.5385
4113.3333,4133.8462,4138.4615,4121.5385,4133.8462,4131.7949,4133.8462,4120,4131.7949,4145.641,4142.5641,4144.1026
4111.7949,4138.4615,4140,4125.1282,4140.5128,4138.4615,4137.9487,4126.6667,4138.9744,4148.2051,4142.5641,4153.3333
4108.7179,4128.2051,4133.3333,4120.5128,4136.9231,4134.359,4132.3077,4126.1538,4132.8205,4141.0256,4141.0256,4152.3077
4107.1795,4118.9744,4128.2051,4117.4359,4127.6923,4125.1282,4123.0769,4120,4121.5385,4134.8718,4139.4872,4138.9744
4101.0256,4128.7179,4136.4103,4123.0769,4129.2308,4123.5897,4121.0256,4121.0256,4120.5128,4137.4359,4138.9744,4135.3846
4098.9744,4136.4103,4140,4125.1282,4131.7949,4123.5897,4120,4123.0769,4127.6923,4138.9744,4140.5128,4141.5385
4108.2051,4134.359,4133.8462,4124.6154,4124.6154,4121.5385,4119.4872,4123.0769,4131.7949,4142.0513,4141.5385,4141.0256
4122.0513,4134.8718,4143.0769,4124.1026,4120.5128,4124.1026,4125.1282,4124.6154,4130.2564,4153.3333,4141.0256,4140
4126.1538,4134.359,4153.8462,4126.1538,4125.1282,4127.6923,4128.2051,4125.641,4126.6667,4157.9487,4144.6154,4146.6667
4120,4134.359,4144.6154,4131.2821,4129.7436,4129.7436,4125.1282,4124.6154,4125.641,4153.3333,4150.2564,4154.8718
4111.2821,4134.359,4137.9487,4130.7692,4125.1282,4129.7436,4123.0769,4124.6154,4127.6923,4155.8974,4147.6923,4153.8462
4103.0769,4127.1795,4140,4123.0769,4109.7436,4124.1026,4122.0513,4124.1026,4120.5128,4153.3333,4138.4615,4142.5641
4102.5641,4124.1026,4133.3333,4119.4872,4102.5641,4121.5385,4129.2308,4129.2308,4112.3077,4141.0256,4135.3846,4136.9231
4112.8205,4133.3333,4129.7436,4123.5897,4113.3333,4126.1538,4137.4359,4136.9231,4118.9744,4141.5385,4139.4872,4139.4872
4112.3077,4136.9231,4137.9487,4122.0513,4121.5385,4127.6923,4131.7949,4134.8718,4124.6154,4148.7179,4137.4359,4136.4103
4105.1282,4129.2308,4140.5128,4119.4872,4120,4126.1538,4124.1026,4126.1538,4122.0513,4149.7436,4141.5385,4140
4112.8205,4132.3077,4135.8974,4127.1795,4118.9744,4128.2051,4127.1795,4125.641,4130.2564,4151.7949,4155.8974,4152.8205
4119.4872,4142.5641,4140.5128,4136.4103,4114.359,4126.6667,4126.1538,4129.2308,4136.9231,4155.8974,4156.9231,4156.4103
4112.3077,4136.4103,4147.6923,4138.4615,4108.2051,4120,4119.4872,4124.6154,4126.6667,4155.3846,4146.6667,4152.3077
4113.8462,4127.6923,4140.5128,4131.7949,4112.3077,4118.9744,4117.9487,4121.0256,4117.9487,4148.2051,4136.4103,4147.6923
4123.0769,4130.2564,4132.8205,4125.1282,4123.0769,4124.1026,4120.5128,4122.0513,4119.4872,4142.0513,4131.2821,4142.0513
4121.5385,4131.7949,4136.9231,4122.0513,4124.6154,4129.2308,4125.1282,4123.5897,4121.0256,4146.6667,4134.8718,4141.5385
4111.2821,4129.7436,4141.5385,4124.1026,4114.8718,4129.7436,4130.7692,4127.1795,4122.0513,4152.8205,4137.9487,4142.0513
4111.2821,4129.7436,4141.5385,4124.1026,4114.8718,4129.7436,4130.7692,4127.1795,4122.0513,4152.8205,4137.9487,4142.0513
4102.0513,4129.2308,4140.5128,4125.641,4103.5897,4124.6154,4129.7436,4128.2051,4123.5897,4146.1538,4130.2564,4135.8974
4097.4359,4130.2564,4137.9487,4121.5385,4101.5385,4122.0513,4125.641,4124.6154,4121.0256,4137.9487,4121.0256,4135.3846
4108.7179,4133.8462,4136.9231,4123.0769,4104.6154,4124.6154,4129.7436,4124.1026,4118.4615,4140,4122.5641,4141.5385
4121.0256,4133.8462,4138.9744,4131.7949,4105.1282,4128.2051,4133.3333,4126.1538,4124.1026,4144.1026,4130.7692,4141.0256
4115.3846,4130.2564,4141.0256,4130.2564,4106.1538,4125.1282,4128.2051,4128.7179,4131.7949,4149.2308,4138.9744,4142.5641
4108.2051,4131.7949,4135.8974,4123.5897,4109.7436,4121.5385,4124.6154,4129.7436,4130.7692,4155.3846,4143.0769,4150.7692
4105.1282,4134.8718,4134.359,4124.6154,4112.8205,4123.5897,4126.6667,4129.2308,4122.5641,4149.7436,4142.5641,4147.6923
4102.5641,4130.7692,4145.641,4128.7179,4108.7179,4124.1026,4129.2308,4132.3077,4123.5897,4142.0513,4141.0256,4136.9231
4113.8462,4128.7179,4155.8974,4133.3333,4104.1026,4124.6154,4134.359,4134.8718,4130.7692,4148.7179,4149.2308,4145.641
4122.0513,4129.2308,4149.7436,4134.359,4108.7179,4129.7436,4138.4615,4130.2564,4125.1282,4151.7949,4152.8205,4155.3846
4107.1795,4123.5897,4137.9487,4123.5897,4109.2308,4129.7436,4134.8718,4124.6154,4114.8718,4142.0513,4142.0513,4143.0769
4098.9744,4126.6667,4137.4359,4116.4103,4107.6923,4124.6154,4134.8718,4126.1538,4116.9231,4140,4140,4133.3333
4109.2308,4137.4359,4144.1026,4124.6154,4115.3846,4129.2308,4138.9744,4132.3077,4124.6154,4147.6923,4153.8462,4140
4107.6923,4134.8718,4143.5897,4127.1795,4124.1026,4137.9487,4140,4136.9231,4122.5641,4144.6154,4156.9231,4141.5385
4103.5897,4130.7692,4143.5897,4125.1282,4123.0769,4138.4615,4140.5128,4138.4615,4117.9487,4139.4872,4146.1538,4135.3846
4112.3077,4133.3333,4150.2564,4133.3333,4123.5897,4135.3846,4139.4872,4137.9487,4128.7179,4147.6923,4143.5897,4135.3846
4113.3333,4131.7949,4155.8974,4139.4872,4124.1026,4128.2051,4138.4615,4137.9487,4135.8974,4156.9231,4148.2051,4139.4872
4106.6667,4127.6923,4156.9231,4138.4615,4115.8974,4123.0769,4133.8462,4131.7949,4127.6923,4154.8718,4145.1282,4134.359
4108.2051,4126.6667,4155.3846,4138.9744,4108.2051,4122.5641,4124.6154,4123.0769,4120.5128,4142.0513,4133.8462,4123.5897
4106.6667,4127.1795,4152.3077,4138.9744,4105.641,4120,4120,4121.0256,4117.9487,4134.8718,4126.6667,4118.9744
4100.5128,4129.7436,4154.8718,4136.4103,4107.6923,4120,4122.0513,4121.5385,4113.8462,4140,4124.1026,4121.5385
4101.5385,4131.7949,4161.0256,4135.8974,4115.8974,4124.6154,4126.6667,4121.0256,4114.8718,4142.0513,4118.9744,4122.5641
4109.7436,4129.2308,4161.0256,4137.4359,4122.0513,4126.1538,4131.7949,4122.5641,4123.5897,4139.4872,4120,4122.0513
4115.8974,4127.1795,4156.9231,4137.9487,4124.1026,4131.7949,4136.9231,4127.1795,4128.2051,4146.1538,4129.7436,4127.6923
4120.5128,4126.1538,4153.8462,4132.3077,4124.6154,4134.8718,4137.9487,4133.3333,4126.1538,4151.2821,4136.4103,4136.9231
4118.4615,4121.0256,4151.2821,4124.1026,4120.5128,4128.7179,4137.4359,4138.9744,4130.7692,4146.1538,4139.4872,4137.9487
4116.4103,4122.5641,4148.7179,4127.6923,4113.3333,4130.7692,4135.8974,4139.4872,4136.4103,4147.6923,4140,4133.3333
4142.0513,4130.7692,4154.8718,4140.5128,4108.7179,4134.8718,4133.8462,4132.8205,4133.3333,4151.2821,4141.0256,4143.5897
4145.1282,4129.2308,4155.3846,4141.5385,4105.641,4128.2051,4134.359,4128.7179,4132.3077,4143.0769,4138.9744,4146.6667
4110.2564,4123.5897,4145.641,4133.8462,4102.5641,4125.641,4134.359,4129.2308,4130.2564,4135.8974,4130.7692,4128.7179
4127.6923,4128.7179,4155.3846,4140.5128,4105.641,4128.2051,4133.8462,4128.2051,4125.641,4152.3077,4130.2564,4141.5385
4164.1026,4145.641,4174.359,4154.8718,4115.3846,4122.5641,4132.3077,4133.3333,4130.2564,4166.6667,4140,4173.8462
4153.3333,4152.8205,4174.359,4157.9487,4121.5385,4120,4131.2821,4143.0769,4136.4103,4164.1026,4143.0769,4174.359
4153.3333,4155.3846,4176.9231,4155.8974,4122.5641,4124.1026,4127.1795,4133.8462,4130.7692,4163.0769,4137.4359,4169.7436
4179.4872,4166.6667,4201.0256,4160.5128,4123.0769,4123.5897,4124.1026,4126.6667,4130.7692,4170.2564,4145.641,4194.8718
4172.8205,4172.3077,4202.5641,4168.7179,4120.5128,4119.4872,4124.1026,4138.9744,4137.9487,4176.4103,4155.3846,4213.8462
4139.4872,4169.7436,4197.4359,4172.8205,4113.8462,4121.5385,4121.0256,4136.9231,4126.6667,4172.3077,4142.5641,4196.9231
4110.2564,4170.7692,4283.5897,4175.3846,4108.2051,4124.1026,4115.3846,4123.0769,4121.0256,4165.641,4133.8462,4183.5897
4061.0256,4171.7949,4398.9744,4173.3333,4105.1282,4115.8974,4111.2821,4121.5385,4124.6154,4160,4134.359,4188.2051
3998.4615,4162.0513,4418.4615,4172.8205,4104.6154,4112.3077,4111.2821,4120.5128,4114.8718,4151.2821,4123.5897,4182.0513
3945.1282,4157.9487,4397.4359,4180,4105.1282,4118.4615,4110.2564,4115.8974,4112.8205,4148.2051,4118.9744,4173.8462
3915.8974,4164.1026,4422.0513,4192.8205,4106.6667,4115.3846,4107.6923,4122.0513,4125.641,4161.5385,4134.8718,4187.1795
3891.2821,4169.2308,4444.1026,4200.5128,4110.2564,4110.7692,4108.2051,4128.7179,4126.6667,4173.8462,4146.1538,4198.4615
3845.641,4161.5385,4418.9744,4195.3846,4112.8205,4113.3333,4109.7436,4123.0769,4120.5128,4163.0769,4137.4359,4183.5897
3804.6154,4152.3077,4397.4359,4186.6667,4110.2564,4111.2821,4110.2564,4117.9487,4121.0256,4150.2564,4123.5897,4169.2308
3779.4872,4154.359,4410.2564,4183.0769,4108.7179,4108.2051,4109.7436,4124.1026,4119.4872,4155.8974,4121.0256,4172.8205
3758.9744,4148.7179,4383.5897,4179.4872,4105.1282,4112.3077,4110.2564,4121.0256,4112.8205,4154.8718,4125.641,4171.2821
3739.4872,4138.4615,4264.6154,4169.7436,4099.4872,4109.2308,4109.7436,4106.6667,4105.1282,4137.4359,4114.359,4150.2564
3728.7179,4140.5128,4173.8462,4170.2564,4101.0256,4106.1538,4109.2308,4108.7179,4101.0256,4133.3333,4098.9744,4134.8718
3723.5897,4148.2051,4187.6923,4182.5641,4106.6667,4112.3077,4109.2308,4124.1026,4102.5641,4141.5385,4106.1538,4145.641
3722.0513,4143.5897,4205.1282,4183.5897,4107.1795,4116.4103,4108.7179,4125.1282,4111.2821,4143.0769,4121.5385,4155.8974
3727.6923,4136.9231,4191.7949,4174.359,4105.1282,4111.7949,4105.1282,4117.9487,4120,4143.0769,4123.0769,4153.3333
3723.0769,4140.5128,4192.8205,4174.359,4106.1538,4107.6923,4100.5128,4119.4872,4118.4615,4143.0769,4120,4150.2564
3713.3333,4141.0256,4195.3846,4174.8718,4103.0769,4109.2308,4104.1026,4123.5897,4117.9487,4143.5897,4121.5385,4148.2051
3709.7436,4136.9231,4188.2051,4161.5385,4097.4359,4111.2821,4110.7692,4125.1282,4120,4144.1026,4116.9231,4141.5385
3704.6154,4136.9231,4185.1282,4152.3077,4100,4109.2308,4109.2308,4122.5641,4112.8205,4135.8974,4106.1538,4130.2564
3695.8974,4140,4184.6154,4161.0256,4104.6154,4107.1795,4105.641,4116.9231,4103.5897,4130.7692,4104.1026,4127.6923
3691.7949,4141.0256,4185.641,4165.1282,4104.1026,4109.7436,4108.7179,4113.3333,4107.1795,4138.4615,4109.2308,4137.9487
3701.0256,4138.4615,4185.641,4157.4359,4104.6154,4111.7949,4108.7179,4109.2308,4108.7179,4135.8974,4102.5641,4136.4103
3712.3077,4137.9487,4183.0769,4157.9487,4108.2051,4109.2308,4105.1282,4106.1538,4102.5641,4120.5128,4091.2821,4121.5385
3704.6154,4138.9744,4181.5385,4166.6667,4112.8205,4107.1795,4105.641,4107.1795,4100,4117.4359,4094.359,4118.9744
3701.5385,4139.4872,4187.6923,4176.9231,4119.4872,4113.8462,4112.3077,4113.8462,4103.5897,4130.2564,4108.2051,4129.2308
3735.8974,4141.0256,4201.0256,4186.1538,4122.5641,4120.5128,4116.4103,4121.0256,4109.7436,4142.5641,4115.8974,4139.4872
3750.7692,4137.9487,4204.1026,4183.5897,4120,4120,4113.3333,4122.0513,4107.6923,4141.5385,4107.1795,4140.5128
3724.1026,4135.3846,4195.8974,4175.3846,4122.5641,4119.4872,4112.8205,4119.4872,4106.1538,4140,4101.5385,4135.3846
3735.3846,4137.4359,4197.4359,4176.9231,4121.0256,4117.4359,4113.8462,4118.9744,4112.8205,4150.7692,4107.6923,4140.5128
3760,4137.9487,4195.3846,4171.2821,4114.359,4108.7179,4109.2308,4115.3846,4112.3077,4145.641,4103.5897,4136.4103
3735.8974,4136.4103,4175.3846,4151.7949,4116.9231,4103.0769,4104.1026,4106.6667,4101.5385,4122.0513,4086.1538,4114.8718
3726.6667,4135.3846,4170.2564,4146.6667,4122.0513,4106.1538,4103.5897,4105.1282,4102.5641,4124.1026,4089.2308,4120
3726.6667,4135.3846,4170.2564,4146.6667,4122.0513,4106.1538,4103.5897,4105.1282,4102.5641,4124.1026,4089.2308,4120
3757.9487,4136.9231,4184.1026,4161.0256,4122.0513,4110.2564,4105.1282,4109.7436,4110.7692,4141.5385,4107.6923,4136.9231
3772.8205,4139.4872,4189.7436,4171.2821,4122.0513,4110.2564,4105.1282,4110.2564,4109.7436,4141.0256,4107.6923,4130.2564
3771.7949,4138.9744,4184.6154,4166.6667,4123.5897,4109.7436,4106.6667,4110.2564,4112.3077,4134.8718,4103.5897,4130.2564
3785.1282,4136.9231,4178.4615,4165.1282,4122.5641,4109.7436,4108.7179,4110.2564,4115.8974,4135.3846,4106.6667,4140.5128
3789.2308,4137.4359,4173.8462,4169.7436,4121.5385,4111.2821,4108.2051,4108.2051,4109.2308,4134.8718,4108.7179,4131.7949
3770.2564,4136.4103,4171.2821,4163.5897,4124.1026,4112.3077,4107.6923,4105.641,4104.1026,4127.6923,4106.1538,4120.5128
3767.6923,4134.8718,4169.2308,4150.7692,4124.6154,4109.7436,4108.7179,4108.7179,4105.641,4121.5385,4099.4872,4120.5128
3792.3077,4136.4103,4168.2051,4151.7949,4122.0513,4104.6154,4108.2051,4111.2821,4107.1795,4127.1795,4097.9487,4124.1026
3803.0769,4137.9487,4169.7436,4160.5128,4120,4106.1538,4107.6923,4110.7692,4109.7436,4135.3846,4104.1026,4125.1282
3800.5128,4138.4615,4172.3077,4161.5385,4124.6154,4111.2821,4110.2564,4114.359,4113.8462,4136.9231,4106.1538,4123.5897
3806.6667,4131.7949,4171.7949,4157.4359,4127.1795,4109.7436,4111.7949,4119.4872,4112.8205,4137.4359,4102.0513,4121.5385
3805.641,4129.2308,4163.0769,4155.3846,4123.0769,4107.1795,4111.7949,4115.8974,4108.2051,4132.8205,4094.359,4115.8974
3806.1538,4129.7436,4153.3333,4156.4103,4122.5641,4108.7179,4108.2051,4108.2051,4107.1795,4125.1282,4087.1795,4112.3077
3817.4359,4124.6154,4154.8718,4155.8974,4131.2821,4109.7436,4107.1795,4112.8205,4109.7436,4124.1026,4096.4103,4121.0256
3817.4359,4127.6923,4157.9487,4153.3333,4134.359,4111.2821,4113.8462,4121.5385,4110.2564,4124.1026,4106.6667,4125.1282
3820.5128,4131.2821,4154.359,4153.8462,4128.7179,4113.3333,4118.9744,4122.0513,4113.8462,4125.641,4100,4118.4615
3835.8974,4126.1538,4153.3333,4153.3333,4124.6154,4111.7949,4120,4125.1282,4121.5385,4137.4359,4100.5128,4122.0513
3840.5128,4126.6667,4154.359,4151.2821,4118.4615,4107.6923,4116.9231,4124.6154,4117.9487,4137.4359,4105.641,4124.6154
3832.8205,4131.7949,4151.7949,4150.7692,4114.8718,4107.1795,4112.8205,4115.8974,4107.1795,4121.0256,4093.3333,4107.1795
3833.3333,4127.1795,4152.8205,4152.8205,4119.4872,4112.3077,4113.8462,4115.8974,4111.2821,4123.0769,4088.7179,4104.1026
3845.1282,4122.5641,4161.0256,4152.8205,4123.5897,4118.4615,4118.4615,4123.5897,4118.4615,4135.8974,4097.9487,4118.9744
3863.0769,4127.1795,4168.7179,4152.8205,4128.7179,4121.0256,4120,4123.0769,4117.4359,4138.4615,4098.4615,4122.5641
3870.7692,4132.3077,4168.2051,4156.4103,4140,4121.5385,4117.4359,4122.0513,4120,4141.0256,4101.5385,4123.0769
3872.3077,4132.8205,4169.2308,4160.5128,4144.1026,4123.0769,4114.359,4126.6667,4124.6154,4144.1026,4117.4359,4130.2564
3880.5128,4125.641,4169.2308,4158.4615,4139.4872,4124.1026,4115.8974,4126.6667,4117.4359,4141.5385,4120.5128,4128.2051
3887.6923,4121.5385,4160,4151.7949,4146.1538,4124.1026,4121.0256,4123.0769,4109.2308,4140,4113.8462,4124.6154
3894.8718,4125.641,4159.4872,4150.2564,4152.8205,4123.0769,4123.5897,4122.5641,4111.2821,4141.0256,4113.8462,4130.7692
3895.3846,4124.6154,4170.2564,4155.3846,4145.641,4122.5641,4122.5641,4124.1026,4111.7949,4137.9487,4112.3077,4123.5897
3889.2308,4120.5128,4166.6667,4153.8462,4137.9487,4118.4615,4120,4120.5128,4104.6154,4135.8974,4103.0769,4109.7436
3891.2821,4122.5641,4154.359,4143.0769,4132.8205,4110.2564,4111.2821,4111.7949,4103.5897,4132.3077,4095.8974,4110.2564
3894.8718,4123.5897,4153.3333,4138.9744,4127.1795,4105.641,4105.641,4106.6667,4107.6923,4126.1538,4098.4615,4117.4359
3889.7436,4121.0256,4154.359,4140.5128,4128.7179,4110.7692,4110.2564,4114.8718,4105.1282,4124.1026,4101.5385,4114.359
3895.8974,4125.1282,4151.7949,4138.4615,4137.4359,4112.8205,4109.7436,4120.5128,4103.5897,4124.1026,4097.4359,4108.2051
3917.4359,4131.2821,4151.7949,4142.0513,4140,4108.2051,4106.6667,4114.8718,4105.1282,4126.1538,4095.8974,4110.7692
3927.6923,4129.7436,4152.8205,4153.3333,4137.9487,4114.8718,4114.8718,4115.8974,4105.641,4131.2821,4102.5641,4115.3846
3927.1795,4123.0769,4153.8462,4156.9231,4139.4872,4121.0256,4121.5385,4123.5897,4106.6667,4138.4615,4108.7179,4119.4872
3928.7179,4124.6154,4152.8205,4148.2051,4140,4111.7949,4110.7692,4116.9231,4107.1795,4133.3333,4107.1795,4118.4615
3923.0769,4130.7692,4151.7949,4144.6154,4139.4872,4109.2308,4104.6154,4111.2821,4105.641,4124.1026,4106.6667,4114.8718
3929.7436,4124.6154,4153.8462,4144.6154,4146.6667,4120.5128,4115.8974,4120,4106.1538,4129.2308,4108.2051,4117.4359
3954.8718,4122.5641,4155.3846,4140.5128,4153.8462,4123.0769,4122.5641,4124.6154,4106.1538,4134.8718,4109.7436,4125.1282
3952.3077,4129.2308,4148.2051,4138.9744,4149.7436,4120,4122.0513,4122.5641,4107.1795,4129.2308,4114.359,4127.1795
3939.4872,4127.6923,4140.5128,4141.5385,4142.5641,4118.9744,4121.0256,4117.4359,4107.1795,4121.5385,4110.7692,4117.9487
3949.2308,4118.4615,4139.4872,4138.9744,4139.4872,4112.3077,4114.8718,4110.7692,4097.4359,4121.5385,4101.5385,4110.2564
3947.6923,4121.5385,4137.4359,4135.8974,4137.9487,4107.6923,4109.2308,4114.359,4095.8974,4122.0513,4101.5385,4106.6667
3945.641,4129.7436,4140.5128,4145.1282,4143.0769,4111.2821,4113.3333,4123.5897,4106.6667,4120,4106.6667,4105.1282
3967.6923,4123.0769,4150.7692,4150.7692,4149.7436,4117.9487,4115.3846,4124.1026,4110.2564,4125.641,4106.1538,4109.2308
3973.8462,4119.4872,4154.359,4144.1026,4153.8462,4119.4872,4113.3333,4120,4108.7179,4133.3333,4108.2051,4119.4872
3968.2051,4123.0769,4151.2821,4141.0256,4162.0513,4116.9231,4116.9231,4120,4110.2564,4133.3333,4111.7949,4124.6154
3981.0256,4122.5641,4152.8205,4140.5128,4165.1282,4116.9231,4121.5385,4121.5385,4109.7436,4130.7692,4110.2564,4120
3979.4872,4126.1538,4153.3333,4137.9487,4155.8974,4120.5128,4120.5128,4123.5897,4110.2564,4133.3333,4112.8205,4118.9744
3974.8718,4127.6923,4153.8462,4143.5897,4158.4615,4122.0513,4121.0256,4126.1538,4122.5641,4137.4359,4122.0513,4123.5897
3996.9231,4123.0769,4153.8462,4147.1795,4171.7949,4121.5385,4125.1282,4126.6667,4124.1026,4137.9487,4121.0256,4125.1282
4002.0513,4126.6667,4144.1026,4138.9744,4171.2821,4121.0256,4123.0769,4124.6154,4107.6923,4131.7949,4108.2051,4117.4359
3984.6154,4129.2308,4136.9231,4138.9744,4158.4615,4117.9487,4118.9744,4121.5385,4104.1026,4123.5897,4102.5641,4110.2564
3984.6154,4126.6667,4137.9487,4149.7436,4153.3333,4118.9744,4118.9744,4123.5897,4118.4615,4127.1795,4106.6667,4116.4103
4009.2308,4133.3333,4143.0769,4157.4359,4162.5641,4122.5641,4121.5385,4126.1538,4126.1538,4138.9744,4113.8462,4131.7949
4021.5385,4134.8718,4147.6923,4158.4615,4168.7179,4122.0513,4121.0256,4123.5897,4123.0769,4137.4359,4114.8718,4137.4359
