"AF3","F7","F3","FC5","T7","P7","O1","O2","FC6","F4","F8","AF4"
4125.641,4124.6154,4111.7949,4106.1538,4069.2308,4099.4872,4112.3077,4127.1795,4144.6154,4133.3333,4126.1538,4106.6667
4131.2821,4130.2564,4125.641,4105.641,4155.8974,4128.2051,4123.5897,4134.359,4156.9231,4135.8974,4140,4125.641
4149.7436,4136.4103,4140,4111.7949,4203.0769,4154.8718,4141.0256,4141.0256,4153.8462,4148.2051,4146.6667,4135.3846
4158.4615,4134.359,4140.5128,4130.2564,4147.1795,4138.4615,4140.5128,4140.5128,4151.2821,4150.7692,4134.8718,4127.6923
4153.8462,4127.1795,4130.7692,4132.3077,4097.4359,4109.2308,4127.1795,4135.3846,4157.4359,4140,4125.641,4124.6154
4153.3333,4132.3077,4134.359,4118.9744,4130.2564,4121.0256,4130.7692,4138.4615,4157.4359,4143.5897,4135.8974,4137.9487
4147.1795,4135.8974,4133.3333,4117.4359,4165.1282,4151.7949,4142.0513,4142.0513,4144.1026,4143.0769,4136.9231,4133.3333
4140.5128,4134.359,4124.6154,4126.1538,4162.5641,4148.2051,4140.5128,4144.1026,4141.0256,4135.8974,4134.8718,4118.4615
4140,4132.3077,4117.4359,4119.4872,4107.1795,4112.3077,4117.9487,4133.3333,4138.9744,4132.3077,4135.3846,4117.4359
4139.4872,4127.6923,4109.2308,4112.8205,4066.1538,4099.4872,4103.5897,4117.4359,4124.6154,4122.5641,4121.5385,4115.3846
4152.3077,4136.9231,4128.2051,4137.9487,4138.4615,4129.7436,4127.6923,4130.7692,4137.4359,4135.3846,4131.2821,4122.5641
4172.3077,4144.1026,4155.3846,4167.1795,4212.8205,4157.9487,4148.7179,4148.7179,4162.0513,4168.2051,4167.1795,4144.1026
4167.6923,4134.8718,4150.7692,4167.1795,4169.7436,4148.2051,4133.3333,4138.4615,4144.6154,4159.4872,4156.9231,4142.5641
4163.0769,4136.4103,4148.2051,4170.2564,4112.3077,4123.0769,4127.1795,4134.359,4137.4359,4150.7692,4140,4140.5128
4164.1026,4141.5385,4153.8462,4176.4103,4124.6154,4118.4615,4135.3846,4135.3846,4153.3333,4170.7692,4156.9231,4149.2308
4142.5641,4130.7692,4123.0769,4158.9744,4124.6154,4126.6667,4117.4359,4115.8974,4125.1282,4147.6923,4137.9487,4118.4615
4152.3077,4134.359,4116.9231,4163.0769,4142.5641,4138.9744,4117.4359,4126.6667,4114.359,4134.8718,4128.2051,4118.4615
4193.3333,4149.7436,4157.9487,4195.3846,4190.2564,4150.7692,4145.641,4154.8718,4151.7949,4173.8462,4167.1795,4168.7179
4184.1026,4141.0256,4158.9744,4200.5128,4146.6667,4129.2308,4136.4103,4141.5385,4156.9231,4174.8718,4173.3333,4164.1026
4139.4872,4120.5128,4121.5385,4175.3846,4091.2821,4114.8718,4110.7692,4121.5385,4123.5897,4132.8205,4142.0513,4117.9487
4133.3333,4129.2308,4116.9231,4168.7179,4165.1282,4156.4103,4128.2051,4133.3333,4122.5641,4128.2051,4138.9744,4119.4872
4160,4144.6154,4135.3846,4182.0513,4194.359,4165.641,4146.1538,4143.0769,4148.7179,4151.2821,4150.7692,4148.7179
4170.7692,4134.8718,4139.4872,4183.5897,4105.1282,4117.9487,4132.3077,4137.4359,4152.3077,4155.8974,4147.6923,4149.2308
4166.6667,4129.7436,4138.9744,4186.6667,4105.1282,4114.8718,4130.2564,4140,4137.9487,4157.4359,4150.2564,4141.5385
4165.641,4136.4103,4136.9231,4195.3846,4177.9487,4149.2308,4141.0256,4139.4872,4132.3077,4160,4154.359,4140.5128
4167.6923,4138.9744,4131.7949,4195.3846,4168.2051,4148.7179,4137.9487,4133.3333,4138.4615,4153.8462,4146.1538,4137.4359
4167.6923,4137.9487,4137.9487,4196.4103,4155.3846,4144.1026,4135.3846,4140.5128,4142.5641,4153.3333,4145.641,4141.0256
4176.9231,4138.4615,4154.8718,4205.641,4172.8205,4150.2564,4142.5641,4155.3846,4155.8974,4176.9231,4170.7692,4162.5641
4172.8205,4131.7949,4146.6667,4197.9487,4116.4103,4122.5641,4126.1538,4142.0513,4153.3333,4175.8974,4170.7692,4156.9231
4148.7179,4122.0513,4120.5128,4178.9744,4105.1282,4114.8718,4106.1538,4115.3846,4119.4872,4135.3846,4135.3846,4123.5897
4152.8205,4133.3333,4129.7436,4183.5897,4187.6923,4153.3333,4125.1282,4134.359,4118.9744,4135.8974,4139.4872,4127.6923
4181.0256,4144.1026,4156.9231,4192.8205,4195.3846,4159.4872,4148.7179,4163.5897,4157.9487,4175.3846,4182.0513,4163.0769
4176.4103,4130.2564,4145.641,4189.2308,4133.3333,4130.7692,4135.3846,4141.5385,4157.9487,4168.7179,4173.8462,4162.5641
4138.4615,4120,4115.8974,4178.4615,4121.5385,4126.6667,4114.359,4116.4103,4124.1026,4128.7179,4111.7949,4113.3333
4151.2821,4134.359,4133.8462,4188.7179,4174.359,4150.7692,4130.7692,4146.6667,4149.2308,4153.8462,4127.1795,4121.0256
4193.8462,4147.1795,4165.641,4214.8718,4174.8718,4141.5385,4145.1282,4168.7179,4194.359,4197.9487,4195.3846,4182.0513
4155.3846,4127.6923,4129.7436,4200,4101.5385,4106.1538,4115.3846,4129.7436,4158.9744,4154.8718,4163.0769,4155.3846
4113.8462,4117.4359,4098.9744,4174.359,4113.3333,4123.0769,4105.641,4115.8974,4129.2308,4121.5385,4114.8718,4106.1538
4152.8205,4135.8974,4132.3077,4191.2821,4193.8462,4164.6154,4138.9744,4150.7692,4165.1282,4160.5128,4156.9231,4143.0769
4163.5897,4134.359,4137.4359,4198.4615,4158.4615,4143.5897,4142.0513,4151.2821,4164.6154,4164.6154,4169.7436,4157.9487
4130.2564,4124.1026,4117.4359,4181.5385,4093.8462,4106.6667,4123.5897,4131.7949,4134.359,4137.9487,4135.8974,4122.5641
4145.1282,4134.8718,4133.8462,4191.2821,4158.9744,4135.3846,4137.4359,4143.5897,4156.4103,4153.3333,4150.2564,4135.8974
4151.7949,4131.7949,4132.8205,4195.3846,4193.3333,4166.6667,4145.1282,4147.1795,4164.6154,4155.3846,4148.7179,4140.5128
4120,4122.0513,4107.6923,4174.359,4133.3333,4143.0769,4129.7436,4127.1795,4132.3077,4127.6923,4112.8205,4102.0513
4126.6667,4127.6923,4116.9231,4177.4359,4148.2051,4134.359,4132.8205,4129.7436,4131.2821,4137.4359,4128.2051,4110.2564
4144.1026,4129.7436,4123.5897,4180,4146.6667,4136.4103,4130.2564,4134.8718,4142.0513,4143.5897,4140,4124.1026
4136.9231,4130.2564,4113.8462,4171.2821,4094.359,4121.0256,4121.0256,4126.6667,4136.9231,4126.1538,4117.9487,4108.2051
4146.1538,4138.4615,4132.8205,4189.2308,4147.1795,4137.4359,4143.5897,4144.1026,4149.7436,4144.1026,4138.9744,4127.1795
4163.5897,4141.0256,4148.2051,4202.0513,4212.3077,4161.0256,4161.5385,4163.0769,4164.1026,4168.7179,4171.7949,4154.8718
4148.7179,4129.2308,4122.5641,4177.9487,4153.3333,4138.9744,4138.9744,4138.4615,4138.4615,4146.1538,4147.1795,4126.1538
4117.4359,4123.0769,4097.9487,4157.9487,4118.4615,4140,4124.1026,4115.3846,4109.2308,4111.7949,4108.7179,4088.7179
4122.0513,4136.4103,4108.2051,4165.1282,4182.0513,4176.4103,4144.1026,4135.3846,4123.0769,4122.5641,4119.4872,4105.641
4157.4359,4142.5641,4133.3333,4180,4169.2308,4151.2821,4152.3077,4151.2821,4148.7179,4157.9487,4155.3846,4138.4615
4161.0256,4133.8462,4140,4186.1538,4109.2308,4115.3846,4141.0256,4132.8205,4136.4103,4159.4872,4154.359,4130.7692
4120.5128,4123.5897,4119.4872,4165.1282,4121.5385,4147.1795,4133.8462,4122.5641,4115.3846,4130.7692,4117.9487,4102.5641
4113.3333,4128.2051,4115.3846,4149.2308,4153.3333,4158.4615,4140,4144.1026,4140,4135.8974,4120,4113.8462
4154.8718,4145.641,4147.1795,4177.9487,4188.7179,4143.5897,4157.9487,4159.4872,4172.3077,4177.4359,4158.9744,4148.7179
4157.4359,4141.0256,4151.2821,4192.8205,4183.0769,4156.9231,4157.4359,4144.1026,4154.8718,4175.3846,4148.7179,4133.3333
4117.9487,4123.0769,4110.2564,4161.0256,4114.359,4146.6667,4128.7179,4122.0513,4119.4872,4123.5897,4099.4872,4087.6923
4116.4103,4128.7179,4105.1282,4148.7179,4092.8205,4117.9487,4121.5385,4133.3333,4127.1795,4116.9231,4100.5128,4092.3077
4145.641,4144.1026,4138.4615,4173.3333,4172.3077,4143.0769,4150.2564,4155.8974,4159.4872,4154.359,4138.9744,4128.2051
4144.1026,4142.0513,4136.9231,4178.9744,4213.3333,4171.2821,4152.8205,4146.1538,4162.0513,4151.2821,4141.0256,4125.1282
4131.2821,4131.7949,4112.3077,4164.1026,4156.4103,4141.5385,4126.6667,4125.1282,4141.5385,4124.6154,4120.5128,4107.6923
4145.1282,4138.9744,4123.5897,4175.8974,4133.3333,4122.0513,4129.2308,4133.8462,4135.3846,4133.8462,4123.0769,4120
4152.8205,4142.5641,4140,4188.7179,4158.4615,4142.5641,4142.0513,4145.1282,4138.4615,4145.1282,4129.7436,4128.7179
4130.7692,4127.6923,4122.0513,4170.7692,4144.6154,4143.0769,4126.6667,4131.7949,4142.5641,4133.8462,4124.6154,4114.8718
4124.1026,4126.6667,4116.4103,4166.6667,4121.5385,4125.641,4121.5385,4132.8205,4152.8205,4139.4872,4129.2308,4116.9231
4144.6154,4133.8462,4131.7949,4179.4872,4154.8718,4148.2051,4143.0769,4151.2821,4151.7949,4153.3333,4135.3846,4129.2308
4156.4103,4135.8974,4138.9744,4176.9231,4194.359,4176.4103,4156.4103,4155.8974,4143.5897,4153.8462,4135.3846,4130.2564
4147.1795,4134.8718,4136.9231,4171.7949,4152.8205,4152.8205,4151.2821,4152.8205,4147.6923,4151.2821,4137.9487,4130.7692
4121.0256,4124.6154,4120.5128,4165.1282,4092.3077,4125.1282,4133.3333,4138.4615,4144.6154,4132.8205,4120,4115.8974
4105.1282,4117.9487,4108.2051,4152.3077,4095.8974,4130.2564,4118.4615,4124.1026,4135.3846,4117.4359,4097.4359,4094.359
4135.8974,4132.3077,4129.7436,4166.1538,4160,4145.641,4135.8974,4143.5897,4152.8205,4146.6667,4123.0769,4120.5128
4172.3077,4149.2308,4158.9744,4200,4190.2564,4145.1282,4155.8974,4161.5385,4176.4103,4183.5897,4160,4165.641
4153.8462,4135.8974,4141.0256,4188.7179,4142.5641,4139.4872,4140,4138.9744,4161.0256,4164.1026,4138.9744,4145.641
4133.8462,4123.5897,4121.0256,4166.6667,4137.4359,4147.1795,4133.8462,4135.3846,4143.5897,4143.5897,4123.0769,4120.5128
4142.5641,4136.4103,4135.3846,4185.641,4152.8205,4143.5897,4142.0513,4151.7949,4142.5641,4151.2821,4136.4103,4134.8718
4132.8205,4133.8462,4131.7949,4189.7436,4109.2308,4120,4129.2308,4141.0256,4138.4615,4139.4872,4125.641,4129.2308
4118.9744,4124.6154,4118.9744,4168.7179,4109.2308,4118.9744,4125.1282,4133.3333,4141.0256,4130.7692,4114.8718,4112.8205
4140,4138.9744,4137.4359,4173.8462,4187.1795,4148.2051,4147.6923,4149.7436,4154.8718,4158.4615,4134.359,4134.8718
4150.7692,4137.4359,4140.5128,4179.4872,4164.1026,4143.5897,4141.5385,4144.1026,4149.2308,4161.5385,4131.2821,4142.0513
4128.7179,4119.4872,4113.3333,4158.9744,4057.4359,4104.1026,4112.8205,4127.6923,4127.1795,4130.7692,4105.641,4113.3333
4137.9487,4129.2308,4122.5641,4167.1795,4114.359,4119.4872,4129.2308,4136.4103,4137.9487,4143.0769,4123.5897,4124.6154
4166.6667,4143.0769,4147.1795,4195.3846,4213.3333,4166.6667,4160,4143.0769,4156.4103,4170.7692,4148.7179,4153.3333
4145.1282,4129.2308,4126.1538,4183.0769,4125.641,4145.1282,4138.4615,4133.3333,4139.4872,4145.641,4124.6154,4131.7949
4113.3333,4117.9487,4106.1538,4163.0769,4061.0256,4108.2051,4111.7949,4128.7179,4122.0513,4116.4103,4102.0513,4106.1538
4136.4103,4137.4359,4121.0256,4176.4103,4176.4103,4144.1026,4142.0513,4140.5128,4136.9231,4134.359,4117.4359,4126.6667
4169.2308,4147.6923,4134.359,4193.3333,4216.4103,4165.641,4167.6923,4151.2821,4156.4103,4163.5897,4138.4615,4152.3077
4138.9744,4126.6667,4120.5128,4181.5385,4095.8974,4117.9487,4135.3846,4132.8205,4138.4615,4145.641,4119.4872,4125.1282
4103.5897,4116.9231,4104.6154,4165.1282,4090.7692,4112.8205,4116.4103,4118.4615,4116.9231,4112.3077,4089.7436,4091.7949
4123.0769,4128.2051,4113.3333,4175.3846,4173.3333,4148.7179,4137.4359,4135.3846,4131.7949,4125.641,4101.0256,4110.2564
4149.7436,4135.3846,4132.8205,4185.641,4138.4615,4131.2821,4139.4872,4144.6154,4148.7179,4154.359,4127.6923,4138.4615
4136.9231,4125.641,4125.1282,4174.359,4078.9744,4103.0769,4121.0256,4125.1282,4135.3846,4143.0769,4122.0513,4125.641
4125.1282,4127.1795,4118.4615,4170.7692,4130.7692,4125.641,4127.6923,4122.5641,4130.7692,4133.8462,4111.2821,4116.4103
4150.7692,4145.1282,4144.6154,4187.6923,4204.6154,4155.3846,4149.2308,4149.2308,4153.8462,4159.4872,4129.7436,4144.1026
4160,4139.4872,4143.5897,4192.8205,4154.8718,4136.9231,4136.4103,4140,4147.6923,4156.9231,4126.6667,4140.5128
4129.7436,4123.0769,4112.3077,4182.5641,4071.7949,4101.5385,4112.3077,4109.2308,4118.4615,4127.1795,4098.4615,4102.0513
4122.0513,4129.2308,4118.9744,4188.2051,4102.5641,4105.641,4116.9231,4121.5385,4122.5641,4130.2564,4102.5641,4107.6923
4151.7949,4137.4359,4147.1795,4205.1282,4181.0256,4135.8974,4129.2308,4145.641,4144.1026,4151.2821,4129.7436,4148.2051
4150.7692,4128.7179,4138.9744,4204.1026,4175.3846,4142.5641,4123.0769,4129.7436,4135.8974,4142.0513,4120.5128,4140.5128
4129.2308,4120.5128,4123.0769,4191.2821,4115.3846,4120,4114.359,4117.9487,4130.2564,4131.7949,4101.0256,4114.359
4147.6923,4129.7436,4140.5128,4199.4872,4114.8718,4109.7436,4122.0513,4138.4615,4153.8462,4152.8205,4121.0256,4134.359
4165.1282,4132.8205,4147.6923,4204.1026,4153.3333,4122.0513,4123.5897,4135.8974,4152.8205,4154.8718,4126.6667,4147.1795
4151.7949,4124.6154,4131.2821,4191.2821,4162.5641,4128.2051,4117.9487,4122.0513,4132.8205,4134.8718,4104.6154,4130.7692
4154.359,4128.2051,4131.7949,4195.8974,4128.2051,4117.4359,4122.5641,4130.7692,4134.8718,4132.8205,4098.9744,4128.2051
4174.8718,4129.7436,4140.5128,4206.6667,4110.7692,4120.5128,4124.1026,4133.8462,4142.5641,4141.0256,4104.1026,4137.4359
4177.9487,4127.6923,4137.9487,4198.4615,4137.4359,4138.9744,4123.5897,4133.3333,4143.5897,4145.641,4109.7436,4146.6667
4176.4103,4140,4140,4198.9744,4136.9231,4127.1795,4125.641,4144.1026,4147.1795,4147.6923,4112.3077,4152.3077
4170.2564,4147.1795,4137.4359,4201.5385,4128.2051,4116.4103,4119.4872,4132.3077,4135.8974,4127.6923,4089.7436,4126.6667
4173.8462,4146.6667,4127.6923,4191.2821,4128.2051,4118.9744,4099.4872,4106.6667,4118.4615,4102.0513,4065.641,4103.0769
4194.8718,4150.2564,4132.3077,4189.7436,4111.7949,4106.1538,4087.6923,4110.2564,4120.5128,4105.1282,4070.7692,4114.359
4211.7949,4162.0513,4149.7436,4204.6154,4110.2564,4102.0513,4091.2821,4121.5385,4120.5128,4114.359,4073.3333,4124.6154
4244.1026,4175.8974,4176.9231,4225.641,4143.0769,4112.3077,4100,4122.5641,4124.1026,4129.2308,4084.1026,4146.6667
4270.7692,4160.5128,4197.4359,4230.7692,4140.5128,4102.0513,4093.8462,4122.5641,4140.5128,4145.1282,4107.6923,4177.9487
4250.7692,4128.2051,4185.1282,4207.1795,4089.7436,4080,4069.7436,4112.3077,4134.8718,4135.8974,4090.7692,4162.0513
4245.641,4158.9744,4173.8462,4195.3846,4082.5641,4077.4359,4059.4872,4104.6154,4122.5641,4130.2564,4072.3077,4142.5641
4280,4231.2821,4194.8718,4212.8205,4103.0769,4081.0256,4066.1538,4109.7436,4125.641,4141.5385,4087.6923,4154.8718
4281.5385,4238.9744,4208.7179,4214.359,4106.1538,4083.5897,4066.6667,4110.2564,4121.5385,4140,4089.7436,4156.4103
4257.4359,4203.5897,4203.5897,4204.1026,4128.7179,4096.9231,4069.2308,4112.3077,4117.4359,4135.8974,4079.4872,4156.9231
4252.3077,4198.4615,4205.1282,4216.4103,4160,4106.1538,4079.4872,4120.5128,4125.641,4142.0513,4084.6154,4167.6923
4241.0256,4193.3333,4201.5385,4225.1282,4151.2821,4101.0256,4074.8718,4115.3846,4123.5897,4138.4615,4082.0513,4155.8974
4224.1026,4176.4103,4191.7949,4217.9487,4110.7692,4078.4615,4055.3846,4101.5385,4111.2821,4126.6667,4072.3077,4142.0513
4206.1538,4182.0513,4178.4615,4212.3077,4110.2564,4067.6923,4042.5641,4094.8718,4103.5897,4112.3077,4066.1538,4135.3846
4195.8974,4189.7436,4174.359,4213.3333,4148.7179,4085.641,4050.7692,4100,4113.3333,4109.7436,4067.1795,4130.2564
4201.5385,4188.2051,4180.5128,4210.7692,4121.5385,4082.0513,4059.4872,4104.1026,4124.6154,4120,4072.3077,4131.2821
4191.2821,4180,4169.7436,4194.359,4068.7179,4056.9231,4047.1795,4096.4103,4112.8205,4111.7949,4065.1282,4123.0769
4167.1795,4170.2564,4151.7949,4177.4359,4112.3077,4073.3333,4038.4615,4088.7179,4100,4096.9231,4053.8462,4108.2051
4174.8718,4182.5641,4177.9487,4190.2564,4183.0769,4103.5897,4058.4615,4105.641,4124.1026,4126.1538,4078.4615,4127.6923
4204.1026,4194.359,4220.5128,4215.8974,4174.8718,4082.5641,4079.4872,4128.2051,4151.7949,4173.3333,4117.9487,4172.3077
4203.0769,4182.5641,4210.7692,4206.1538,4168.2051,4072.3077,4076.4103,4124.1026,4137.9487,4161.5385,4107.6923,4171.7949
4170.7692,4171.7949,4179.4872,4182.0513,4201.5385,4105.641,4070.2564,4109.2308,4113.3333,4121.0256,4068.7179,4132.3077
4164.6154,4174.8718,4181.0256,4182.5641,4188.2051,4108.2051,4073.3333,4104.6154,4109.2308,4124.1026,4063.5897,4124.6154
4174.8718,4177.4359,4190.2564,4186.1538,4148.7179,4078.4615,4073.3333,4106.1538,4108.2051,4138.9744,4076.9231,4140.5128
4165.1282,4173.8462,4182.5641,4183.0769,4146.1538,4068.2051,4065.641,4106.1538,4102.5641,4126.6667,4068.7179,4132.8205
4157.9487,4173.8462,4175.8974,4184.6154,4161.5385,4072.3077,4061.0256,4104.1026,4104.1026,4117.4359,4054.359,4117.4359
4157.9487,4165.641,4166.1538,4174.8718,4187.6923,4086.1538,4060.5128,4096.4103,4103.0769,4117.4359,4056.4103,4111.2821
4165.641,4159.4872,4165.1282,4167.1795,4198.4615,4096.4103,4065.641,4095.3846,4106.1538,4124.6154,4074.359,4125.1282
4174.359,4171.7949,4186.6667,4185.1282,4182.0513,4084.1026,4081.0256,4115.3846,4120.5128,4149.2308,4095.8974,4153.8462
4161.5385,4174.359,4189.7436,4188.7179,4190.2564,4085.1282,4086.1538,4122.5641,4119.4872,4153.8462,4092.3077,4150.7692
4150.2564,4166.1538,4177.4359,4168.2051,4203.0769,4103.5897,4082.0513,4109.2308,4106.1538,4135.3846,4077.9487,4129.7436
4144.1026,4161.0256,4168.2051,4147.1795,4131.2821,4085.1282,4069.2308,4098.9744,4090.7692,4117.9487,4061.0256,4115.8974
4142.5641,4159.4872,4165.1282,4134.8718,4087.1795,4057.4359,4058.9744,4106.1538,4088.2051,4116.9231,4055.3846,4115.3846
4166.1538,4170.7692,4182.0513,4146.1538,4185.1282,4084.6154,4079.4872,4122.5641,4110.7692,4141.0256,4081.5385,4139.4872
4167.6923,4170.2564,4184.1026,4158.9744,4237.9487,4120,4096.9231,4120,4123.0769,4149.7436,4091.2821,4147.1795
4122.0513,4149.2308,4145.641,4137.4359,4175.3846,4111.7949,4073.8462,4099.4872,4102.0513,4116.9231,4062.5641,4105.641
4125.1282,4150.7692,4138.4615,4128.7179,4177.9487,4094.8718,4059.4872,4103.0769,4102.0513,4108.7179,4065.641,4095.8974
4171.7949,4171.2821,4173.8462,4158.9744,4188.7179,4074.359,4075.8974,4124.1026,4135.8974,4146.6667,4104.6154,4141.0256
4153.8462,4161.5385,4163.5897,4153.8462,4125.641,4053.3333,4068.2051,4114.359,4130.7692,4145.641,4096.4103,4138.9744
4109.7436,4138.4615,4126.6667,4118.4615,4136.4103,4076.9231,4057.4359,4093.8462,4096.4103,4114.359,4065.641,4102.5641
4102.0513,4144.6154,4133.8462,4121.5385,4173.3333,4097.4359,4072.8205,4100,4092.8205,4117.4359,4065.1282,4100.5128
4118.9744,4162.0513,4156.9231,4143.0769,4137.4359,4072.8205,4078.9744,4116.4103,4115.3846,4140.5128,4077.4359,4121.5385
4142.5641,4158.9744,4157.9487,4141.5385,4140,4065.1282,4078.4615,4122.0513,4125.641,4151.2821,4090.7692,4142.0513
4137.9487,4155.8974,4147.6923,4133.3333,4197.4359,4098.4615,4093.8462,4116.9231,4110.7692,4142.0513,4089.2308,4134.8718
4108.7179,4157.9487,4133.3333,4131.7949,4190.2564,4118.4615,4095.8974,4108.7179,4091.2821,4120,4063.0769,4103.5897
4101.0256,4155.3846,4120,4125.1282,4134.8718,4093.8462,4073.3333,4103.5897,4085.1282,4107.6923,4047.1795,4091.7949
4113.8462,4158.4615,4122.5641,4125.641,4116.4103,4064.6154,4069.2308,4104.1026,4090.7692,4113.3333,4058.9744,4102.0513
4119.4872,4162.0513,4134.8718,4143.0769,4134.8718,4066.1538,4081.0256,4109.7436,4106.6667,4122.5641,4080,4108.2051
4116.9231,4161.0256,4139.4872,4155.3846,4180.5128,4104.6154,4090.2564,4112.3077,4119.4872,4123.5897,4085.641,4108.7179
4114.359,4158.9744,4133.8462,4154.359,4196.9231,4130.2564,4096.9231,4111.2821,4116.4103,4124.6154,4078.4615,4108.2051
4105.641,4157.9487,4133.8462,4150.2564,4167.6923,4110.7692,4091.7949,4114.359,4111.2821,4127.1795,4077.4359,4100.5128
4095.3846,4156.9231,4136.9231,4145.641,4154.8718,4091.2821,4082.0513,4111.7949,4117.9487,4127.1795,4077.4359,4099.4872
4099.4872,4155.3846,4136.9231,4147.6923,4157.4359,4094.359,4090.2564,4111.2821,4128.7179,4135.3846,4083.5897,4119.4872
4111.7949,4160.5128,4140.5128,4152.3077,4160,4108.7179,4110.7692,4122.5641,4125.641,4147.6923,4096.4103,4135.3846
4108.2051,4156.9231,4140,4146.6667,4134.8718,4103.5897,4108.2051,4121.5385,4110.7692,4145.641,4094.359,4129.7436
4084.1026,4143.5897,4120,4130.7692,4096.4103,4082.5641,4087.6923,4109.7436,4107.6923,4128.2051,4073.3333,4109.7436
4072.8205,4149.2308,4102.5641,4127.6923,4128.2051,4092.3077,4088.2051,4115.3846,4115.3846,4118.4615,4064.1026,4095.3846
4103.5897,4159.4872,4127.6923,4149.2308,4188.7179,4118.4615,4111.2821,4128.2051,4129.7436,4142.5641,4090.7692,4120.5128
4114.359,4150.2564,4142.5641,4154.359,4172.3077,4113.8462,4113.8462,4115.3846,4129.2308,4148.7179,4101.5385,4133.8462
4084.1026,4144.6154,4121.0256,4140.5128,4150.2564,4105.641,4100,4109.7436,4122.0513,4124.6154,4085.641,4106.1538
4077.9487,4146.6667,4113.8462,4139.4872,4158.4615,4110.7692,4097.4359,4118.9744,4120,4121.5385,4079.4872,4093.3333
4104.1026,4146.6667,4129.2308,4147.1795,4122.0513,4089.2308,4096.4103,4116.9231,4117.4359,4135.3846,4092.8205,4113.3333
4098.4615,4146.1538,4123.0769,4137.9487,4125.1282,4088.7179,4095.3846,4111.7949,4116.4103,4128.2051,4096.9231,4114.359
4073.3333,4149.2308,4111.2821,4135.8974,4178.9744,4123.5897,4104.1026,4116.9231,4123.5897,4119.4872,4085.1282,4100.5128
4088.2051,4152.3077,4129.7436,4152.8205,4152.3077,4116.9231,4109.7436,4125.1282,4134.359,4139.4872,4090.7692,4120.5128
4102.5641,4151.7949,4138.4615,4149.7436,4122.5641,4098.4615,4110.2564,4122.0513,4131.2821,4148.2051,4100.5128,4134.359
4078.9744,4150.2564,4118.4615,4134.8718,4160.5128,4111.7949,4111.7949,4121.5385,4122.5641,4132.8205,4093.3333,4112.3077
4069.2308,4145.1282,4106.6667,4135.3846,4151.2821,4113.8462,4108.2051,4121.0256,4120.5128,4126.6667,4086.6667,4102.0513
4091.7949,4146.1538,4120,4140,4121.0256,4104.1026,4109.2308,4120.5128,4127.1795,4139.4872,4096.4103,4122.0513
4098.4615,4150.2564,4124.6154,4140.5128,4149.2308,4114.359,4117.4359,4128.2051,4129.7436,4143.0769,4100,4125.641
4067.1795,4145.641,4102.0513,4135.3846,4168.7179,4127.6923,4109.2308,4118.4615,4112.3077,4117.9487,4080.5128,4095.8974
4049.2308,4147.1795,4090.7692,4128.7179,4131.2821,4117.9487,4097.9487,4103.5897,4106.1538,4105.1282,4070.2564,4087.1795
4063.0769,4146.6667,4103.0769,4130.7692,4092.8205,4096.9231,4102.0513,4113.8462,4122.0513,4122.0513,4080.5128,4105.1282
4071.2821,4142.0513,4113.3333,4135.8974,4112.8205,4096.4103,4108.7179,4120.5128,4121.5385,4130.2564,4085.641,4111.2821
4063.5897,4146.6667,4109.2308,4130.7692,4159.4872,4118.9744,4115.8974,4113.8462,4104.6154,4120,4078.4615,4101.0256
4060.5128,4146.6667,4101.5385,4125.1282,4159.4872,4125.1282,4119.4872,4115.8974,4106.1538,4117.9487,4076.4103,4101.5385
4063.5897,4142.5641,4105.1282,4123.0769,4125.641,4108.7179,4111.2821,4115.3846,4105.641,4122.5641,4077.9487,4106.1538
4060.5128,4142.5641,4109.7436,4114.8718,4129.2308,4108.7179,4107.1795,4113.8462,4093.3333,4122.5641,4075.8974,4102.0513
4050.2564,4142.0513,4101.0256,4106.6667,4122.0513,4113.3333,4112.3077,4123.5897,4095.8974,4122.0513,4081.0256,4100
4045.641,4147.6923,4091.2821,4112.3077,4083.5897,4096.4103,4109.2308,4118.9744,4105.1282,4117.4359,4084.6154,4096.4103
4065.641,4154.8718,4101.5385,4128.2051,4109.2308,4098.9744,4109.7436,4111.2821,4115.8974,4120,4093.3333,4100
4075.8974,4153.3333,4113.3333,4136.9231,4164.6154,4123.5897,4118.4615,4119.4872,4127.6923,4130.2564,4105.1282,4112.8205
4044.1026,4141.5385,4103.5897,4127.1795,4154.8718,4118.9744,4110.2564,4112.8205,4112.3077,4120.5128,4090.2564,4103.5897
4031.2821,4136.9231,4089.2308,4115.3846,4125.641,4105.641,4100,4104.1026,4094.359,4107.6923,4069.2308,4087.1795
4056.9231,4146.6667,4095.3846,4119.4872,4124.6154,4108.2051,4106.1538,4117.4359,4111.2821,4120.5128,4085.1282,4103.5897
4056.9231,4146.1538,4108.7179,4125.1282,4091.7949,4092.8205,4103.5897,4113.8462,4121.5385,4133.3333,4103.5897,4120.5128
4027.1795,4136.9231,4104.6154,4116.9231,4073.3333,4084.6154,4093.3333,4094.359,4100.5128,4122.0513,4086.1538,4103.0769
4023.5897,4135.8974,4086.6667,4101.5385,4113.8462,4109.7436,4100.5128,4103.5897,4095.8974,4112.8205,4071.7949,4091.2821
4052.8205,4144.1026,4089.7436,4106.1538,4127.6923,4113.3333,4113.3333,4127.1795,4118.9744,4128.7179,4094.359,4112.3077
4070.7692,4148.2051,4109.7436,4126.1538,4117.4359,4098.4615,4112.8205,4126.6667,4125.1282,4143.5897,4113.8462,4131.2821
4049.7436,4138.9744,4098.9744,4121.5385,4126.1538,4107.1795,4104.1026,4108.7179,4108.2051,4126.6667,4095.8974,4114.8718
4025.641,4137.4359,4078.9744,4105.1282,4130.7692,4113.8462,4102.0513,4104.1026,4108.2051,4109.7436,4081.5385,4096.4103
4041.5385,4147.1795,4088.2051,4115.3846,4118.4615,4103.5897,4105.641,4111.2821,4125.641,4120,4098.4615,4105.641
4058.4615,4141.5385,4096.4103,4128.2051,4117.4359,4104.1026,4106.1538,4110.7692,4126.6667,4125.1282,4102.0513,4113.3333
4045.641,4132.8205,4090.2564,4124.1026,4138.4615,4121.0256,4109.2308,4111.2821,4115.3846,4122.0513,4091.7949,4106.6667
4034.8718,4136.4103,4090.7692,4120.5128,4122.5641,4113.8462,4107.6923,4112.3077,4113.8462,4122.5641,4090.2564,4101.0256
4029.2308,4138.9744,4090.7692,4117.4359,4071.7949,4082.0513,4091.7949,4102.5641,4106.6667,4108.7179,4081.0256,4091.7949
4020.5128,4131.2821,4090.2564,4109.2308,4091.2821,4090.2564,4090.7692,4104.1026,4101.5385,4103.0769,4077.9487,4093.8462
4033.8462,4131.7949,4105.1282,4108.7179,4148.2051,4120,4117.9487,4125.641,4116.4103,4126.6667,4099.4872,4116.9231
4043.5897,4135.3846,4101.0256,4108.2051,4117.4359,4112.8205,4121.5385,4123.5897,4118.9744,4125.641,4095.8974,4108.2051
4022.5641,4130.7692,4077.4359,4100,4087.6923,4107.1795,4107.1795,4106.1538,4106.1538,4099.4872,4074.359,4079.4872
4022.5641,4134.359,4087.1795,4108.7179,4127.6923,4122.0513,4115.3846,4116.4103,4109.2308,4107.1795,4086.1538,4095.3846
4054.359,4144.1026,4111.7949,4128.7179,4133.3333,4109.7436,4118.9744,4130.2564,4126.1538,4130.2564,4108.7179,4123.5897
4062.5641,4141.5385,4106.1538,4130.7692,4131.2821,4103.0769,4111.7949,4121.5385,4130.7692,4131.7949,4111.7949,4120.5128
4036.4103,4131.2821,4082.0513,4113.3333,4126.1538,4115.3846,4106.6667,4107.1795,4109.7436,4111.2821,4091.7949,4097.4359
4011.7949,4126.1538,4069.2308,4105.1282,4058.9744,4091.2821,4092.3077,4101.0256,4085.1282,4089.7436,4070.2564,4076.4103
4028.2051,4130.7692,4083.5897,4114.8718,4061.5385,4080.5128,4095.8974,4109.2308,4095.3846,4100.5128,4085.1282,4087.6923
4062.0513,4137.4359,4108.7179,4124.6154,4168.7179,4121.5385,4124.1026,4129.2308,4124.6154,4132.8205,4117.4359,4122.5641
4055.3846,4132.3077,4107.1795,4117.9487,4176.4103,4133.8462,4124.1026,4125.641,4122.0513,4136.4103,4109.2308,4122.5641
4027.6923,4124.1026,4089.2308,4103.0769,4078.4615,4096.9231,4097.9487,4103.5897,4102.0513,4112.3077,4081.0256,4093.3333
4040,4132.8205,4102.5641,4114.359,4069.2308,4083.5897,4100,4109.7436,4115.3846,4121.0256,4099.4872,4109.7436
4062.0513,4140.5128,4120.5128,4134.8718,4134.8718,4109.7436,4113.3333,4126.1538,4129.7436,4145.1282,4121.0256,4134.359
4053.8462,4134.359,4114.359,4128.7179,4160.5128,4133.8462,4119.4872,4126.1538,4118.9744,4137.9487,4106.6667,4119.4872
4045.641,4124.6154,4103.0769,4115.8974,4120.5128,4124.6154,4120,4125.1282,4115.3846,4124.6154,4096.9231,4110.7692
4041.5385,4126.6667,4091.7949,4119.4872,4073.8462,4095.8974,4109.7436,4122.0513,4119.4872,4121.5385,4097.9487,4116.9231
4041.5385,4134.359,4087.1795,4124.6154,4107.1795,4100,4109.2308,4118.9744,4124.1026,4126.6667,4107.1795,4122.0513
4049.7436,4131.7949,4091.7949,4124.1026,4163.5897,4129.7436,4122.0513,4121.0256,4126.1538,4131.7949,4119.4872,4125.1282
4040,4128.7179,4085.1282,4125.641,4124.6154,4121.5385,4114.359,4113.8462,4117.4359,4117.9487,4109.7436,4110.7692
4016.9231,4126.1538,4068.7179,4121.5385,4055.3846,4086.6667,4089.2308,4104.1026,4112.3077,4098.4615,4091.2821,4090.2564
4018.9744,4126.1538,4074.8718,4115.8974,4087.1795,4090.7692,4094.359,4115.8974,4127.1795,4107.6923,4100.5128,4095.8974
4046.1538,4128.2051,4094.359,4121.0256,4135.8974,4113.3333,4113.8462,4129.7436,4134.359,4128.7179,4118.4615,4116.4103
4046.1538,4127.1795,4085.641,4124.6154,4118.4615,4117.4359,4111.2821,4120.5128,4124.6154,4122.0513,4108.2051,4114.359
4015.8974,4125.1282,4065.641,4120,4088.7179,4113.8462,4105.1282,4108.7179,4116.4103,4105.1282,4088.2051,4094.8718
4008.2051,4122.0513,4068.2051,4119.4872,4076.9231,4102.0513,4104.6154,4108.2051,4108.7179,4100,4081.0256,4083.5897
4040,4128.2051,4092.3077,4136.4103,4091.2821,4091.2821,4110.7692,4119.4872,4122.0513,4118.9744,4105.1282,4106.1538
4056.9231,4134.359,4101.0256,4154.359,4123.0769,4105.1282,4122.0513,4128.7179,4140,4138.4615,4123.5897,4125.641
4027.1795,4125.1282,4077.9487,4151.2821,4137.4359,4129.7436,4124.1026,4122.0513,4123.5897,4121.0256,4102.5641,4098.9744
4014.359,4124.6154,4063.5897,4147.1795,4113.3333,4124.6154,4114.8718,4114.8718,4109.2308,4097.9487,4087.6923,4078.4615
4033.8462,4128.7179,4073.3333,4152.3077,4095.8974,4109.7436,4111.2821,4120.5128,4123.0769,4105.1282,4097.4359,4092.3077
4036.9231,4125.641,4082.0513,4150.7692,4100,4107.6923,4111.2821,4126.6667,4130.2564,4120,4104.6154,4104.1026
4015.8974,4122.5641,4074.359,4136.9231,4078.9744,4104.1026,4106.1538,4120,4124.6154,4114.8718,4100.5128,4101.5385
4013.3333,4122.5641,4069.2308,4125.1282,4074.359,4109.2308,4104.6154,4113.3333,4126.6667,4109.7436,4099.4872,4098.9744
4044.1026,4131.7949,4086.1538,4128.2051,4116.9231,4118.4615,4115.3846,4119.4872,4136.4103,4125.641,4104.6154,4113.3333
4064.6154,4130.2564,4100,4127.1795,4131.2821,4116.9231,4125.641,4126.1538,4142.5641,4141.0256,4112.3077,4132.3077
4044.6154,4118.4615,4084.1026,4109.7436,4097.9487,4107.6923,4115.3846,4118.4615,4131.7949,4127.1795,4109.7436,4116.9231
4024.6154,4124.6154,4067.6923,4102.5641,4093.8462,4104.6154,4109.2308,4111.7949,4119.4872,4109.7436,4098.9744,4089.7436
4038.9744,4129.7436,4077.9487,4111.7949,4105.1282,4109.2308,4117.9487,4116.9231,4125.641,4118.9744,4100.5128,4099.4872
4036.4103,4116.9231,4073.3333,4101.0256,4089.7436,4116.9231,4113.3333,4114.8718,4123.0769,4108.7179,4090.2564,4096.9231
4011.7949,4116.9231,4057.4359,4090.2564,4085.1282,4117.9487,4102.0513,4112.3077,4116.9231,4092.8205,4083.5897,4077.9487
4021.5385,4129.7436,4070.2564,4105.641,4075.3846,4096.9231,4107.1795,4117.4359,4129.2308,4111.7949,4106.6667,4095.8974
4039.4872,4126.6667,4083.0769,4114.359,4068.7179,4091.2821,4117.9487,4120.5128,4135.3846,4122.0513,4114.8718,4114.8718
4031.7949,4117.9487,4072.8205,4104.6154,4096.9231,4118.4615,4116.9231,4117.9487,4124.6154,4105.1282,4091.7949,4097.9487
4029.7436,4126.1538,4071.7949,4099.4872,4116.4103,4131.2821,4114.359,4120.5128,4119.4872,4106.1538,4088.7179,4090.2564
4047.6923,4130.2564,4084.1026,4105.1282,4107.6923,4115.8974,4116.4103,4128.2051,4126.6667,4127.1795,4108.7179,4109.2308
4046.6667,4123.5897,4077.9487,4103.5897,4105.1282,4109.7436,4112.8205,4117.4359,4124.6154,4120.5128,4101.5385,4107.1795
4033.3333,4125.1282,4069.2308,4095.3846,4114.359,4115.3846,4106.6667,4103.0769,4112.3077,4105.641,4080,4090.2564
4035.8974,4123.5897,4075.3846,4093.3333,4100,4110.7692,4107.1795,4109.7436,4116.4103,4110.2564,4083.0769,4095.8974
4028.7179,4116.4103,4069.2308,4083.0769,4068.7179,4104.1026,4108.2051,4118.4615,4116.4103,4106.1538,4080.5128,4092.3077
4015.3846,4116.9231,4055.3846,4068.2051,4074.8718,4106.1538,4108.7179,4121.0256,4109.7436,4098.9744,4073.3333,4080.5128
4029.2308,4124.6154,4070.7692,4075.3846,4121.0256,4113.8462,4120,4127.1795,4123.0769,4118.4615,4094.8718,4101.5385
4025.1282,4119.4872,4074.359,4079.4872,4103.5897,4114.359,4115.3846,4113.3333,4120.5128,4115.3846,4087.6923,4097.9487
3990.2564,4107.1795,4034.8718,4054.8718,4034.359,4100.5128,4087.1795,4085.641,4091.7949,4073.3333,4047.6923,4051.7949
4004.6154,4123.5897,4033.3333,4059.4872,4058.4615,4094.359,4087.1795,4101.5385,4102.0513,4079.4872,4070.2564,4066.1538
4046.6667,4138.9744,4076.4103,4090.2564,4131.7949,4106.1538,4109.7436,4132.8205,4132.8205,4123.0769,4116.9231,4115.8974
4042.0513,4124.6154,4075.8974,4083.0769,4120.5128,4110.7692,4111.2821,4120,4124.6154,4118.9744,4105.641,4106.1538
4030.2564,4116.9231,4050.7692,4063.5897,4078.4615,4101.5385,4102.5641,4098.9744,4114.359,4097.4359,4087.6923,4087.1795
4037.4359,4120,4052.8205,4065.1282,4096.9231,4111.7949,4107.1795,4106.1538,4122.5641,4105.1282,4095.8974,4097.9487
4035.3846,4124.1026,4061.5385,4066.1538,4116.4103,4126.1538,4115.3846,4121.0256,4117.9487,4113.3333,4097.9487,4098.9744
4022.5641,4124.6154,4053.3333,4057.9487,4094.8718,4116.9231,4112.8205,4123.5897,4106.6667,4102.0513,4089.7436,4086.1538
4022.5641,4118.4615,4051.7949,4054.8718,4074.359,4101.0256,4106.1538,4116.9231,4106.1538,4096.4103,4085.1282,4083.5897
4032.3077,4117.4359,4057.4359,4060,4074.8718,4095.3846,4106.6667,4108.7179,4109.2308,4104.1026,4090.2564,4089.7436
4018.9744,4120.5128,4044.6154,4057.9487,4082.0513,4100,4104.6154,4103.5897,4103.0769,4100,4094.359,4083.0769
4000.5128,4123.5897,4040,4055.3846,4076.9231,4103.5897,4094.8718,4104.1026,4100,4088.7179,4089.2308,4070.7692
4018.9744,4129.2308,4057.4359,4066.6667,4081.0256,4106.1538,4096.9231,4108.7179,4110.2564,4101.5385,4093.3333,4084.6154
4044.1026,4130.7692,4061.0256,4078.9744,4087.1795,4104.1026,4102.5641,4109.7436,4112.3077,4114.359,4103.0769,4097.9487
4041.5385,4122.5641,4051.7949,4075.8974,4092.8205,4106.1538,4100,4111.7949,4102.5641,4105.641,4102.0513,4086.6667
4045.1282,4121.5385,4056.9231,4072.8205,4100.5128,4111.7949,4105.641,4123.0769,4112.3077,4113.8462,4109.2308,4097.4359
4047.6923,4124.1026,4064.1026,4076.4103,4074.8718,4100.5128,4110.2564,4122.0513,4123.5897,4127.6923,4115.8974,4114.8718
4034.8718,4122.0513,4056.9231,4074.359,4065.641,4097.4359,4105.641,4105.1282,4110.7692,4119.4872,4103.0769,4101.0256
4042.0513,4124.6154,4063.5897,4076.9231,4102.5641,4113.3333,4109.2308,4111.7949,4107.1795,4121.5385,4104.6154,4100
4042.0513,4122.0513,4069.7436,4074.359,4078.4615,4098.9744,4106.1538,4123.0769,4098.9744,4124.6154,4109.2308,4110.7692
4018.9744,4109.7436,4050.2564,4060.5128,4035.8974,4076.9231,4090.7692,4103.0769,4071.7949,4102.5641,4087.6923,4087.6923
4017.4359,4116.4103,4034.359,4063.0769,4103.5897,4110.7692,4096.9231,4096.4103,4069.2308,4091.2821,4076.4103,4066.6667
4045.641,4129.7436,4049.2308,4079.4872,4150.7692,4130.2564,4112.8205,4120.5128,4093.8462,4114.359,4098.4615,4092.3077
4065.1282,4124.6154,4064.6154,4080.5128,4078.4615,4087.6923,4106.6667,4121.5385,4102.5641,4132.3077,4117.9487,4118.4615
4044.1026,4120,4047.1795,4066.6667,4055.3846,4076.9231,4096.4103,4103.5897,4086.1538,4114.359,4106.6667,4097.4359
4005.1282,4118.9744,4028.2051,4062.0513,4101.5385,4110.2564,4092.3077,4100.5128,4070.7692,4087.1795,4087.1795,4068.2051
4011.7949,4117.4359,4043.5897,4071.7949,4110.7692,4113.3333,4089.2308,4102.5641,4075.8974,4092.8205,4093.3333,4082.5641
4052.8205,4126.1538,4065.1282,4082.5641,4106.6667,4102.0513,4101.0256,4109.7436,4094.8718,4117.4359,4114.359,4111.7949
4056.4103,4125.1282,4060.5128,4078.9744,4105.641,4108.2051,4109.7436,4115.3846,4091.7949,4116.4103,4113.8462,4105.641
4037.9487,4115.8974,4048.7179,4072.8205,4089.2308,4110.7692,4101.5385,4110.7692,4071.7949,4100.5128,4095.3846,4084.6154
4043.5897,4116.9231,4050.2564,4077.4359,4063.5897,4092.8205,4092.3077,4106.1538,4072.8205,4103.5897,4089.2308,4086.6667
4046.1538,4121.0256,4055.8974,4082.5641,4070.2564,4085.1282,4094.359,4107.1795,4082.5641,4112.3077,4097.4359,4095.3846
4029.2308,4120.5128,4058.9744,4083.0769,4113.3333,4111.7949,4105.1282,4107.6923,4081.5385,4108.7179,4103.5897,4090.7692
4034.8718,4114.8718,4061.5385,4081.5385,4129.7436,4124.6154,4106.1538,4107.1795,4077.9487,4108.7179,4098.9744,4088.2051
4045.1282,4109.7436,4053.8462,4075.8974,4110.2564,4107.1795,4089.2308,4106.6667,4073.8462,4105.1282,4084.1026,4087.1795
4038.4615,4113.3333,4050.2564,4074.359,4087.6923,4088.2051,4080.5128,4108.7179,4074.359,4101.5385,4090.7692,4089.2308
4038.9744,4118.9744,4056.9231,4081.0256,4061.0256,4074.8718,4088.7179,4106.1538,4077.4359,4105.641,4108.7179,4095.3846
4045.641,4115.3846,4052.8205,4079.4872,4071.7949,4085.641,4094.8718,4101.0256,4072.8205,4098.9744,4098.9744,4089.2308
4037.4359,4109.2308,4046.6667,4072.8205,4115.3846,4112.8205,4093.3333,4105.1282,4068.7179,4088.2051,4091.2821,4082.0513
4032.3077,4120,4055.8974,4082.0513,4093.8462,4102.0513,4094.359,4111.2821,4078.4615,4094.359,4104.1026,4087.1795
4050.7692,4127.1795,4063.5897,4096.4103,4057.4359,4077.4359,4100.5128,4109.2308,4090.2564,4109.7436,4112.3077,4093.8462
4070.2564,4119.4872,4062.0513,4101.5385,4107.1795,4100,4109.2308,4108.2051,4088.2051,4114.8718,4112.8205,4102.0513
4064.6154,4119.4872,4059.4872,4104.1026,4153.3333,4127.1795,4112.8205,4111.2821,4072.3077,4108.7179,4109.2308,4102.0513
4047.6923,4121.5385,4054.8718,4105.1282,4117.4359,4114.8718,4105.641,4109.7436,4061.0256,4095.8974,4098.4615,4088.2051
4046.1538,4117.4359,4054.359,4108.2051,4081.5385,4092.3077,4095.3846,4107.1795,4064.6154,4090.7692,4096.4103,4084.6154
4046.1538,4114.359,4053.8462,4107.6923,4100,4094.8718,4090.7692,4105.641,4066.1538,4091.7949,4096.4103,4084.6154
4037.9487,4113.3333,4051.7949,4094.8718,4115.8974,4106.6667,4094.8718,4104.1026,4065.1282,4094.359,4090.2564,4078.4615
4048.2051,4117.9487,4060.5128,4088.2051,4100.5128,4102.0513,4096.9231,4106.6667,4072.8205,4103.5897,4100,4085.1282
4058.4615,4120.5128,4065.1282,4091.2821,4114.359,4108.2051,4096.4103,4110.2564,4081.0256,4104.6154,4108.2051,4092.3077
4041.0256,4113.3333,4053.8462,4083.0769,4106.6667,4109.7436,4091.2821,4107.1795,4075.8974,4093.8462,4101.0256,4084.6154
4031.2821,4111.2821,4052.3077,4076.4103,4029.2308,4068.7179,4080.5128,4098.4615,4070.7692,4091.2821,4098.4615,4081.5385
4052.3077,4118.4615,4067.1795,4089.7436,4043.0769,4060.5128,4089.7436,4102.0513,4078.4615,4105.641,4107.6923,4092.8205
4068.2051,4119.4872,4081.0256,4102.0513,4146.6667,4110.2564,4108.7179,4114.8718,4085.1282,4116.4103,4110.2564,4103.5897
4056.9231,4113.8462,4077.4359,4092.3077,4148.2051,4124.1026,4099.4872,4106.6667,4071.7949,4106.1538,4093.3333,4095.3846
4050.7692,4116.4103,4069.2308,4084.6154,4090.2564,4094.8718,4084.1026,4091.2821,4062.5641,4092.8205,4081.5385,4076.9231
4069.2308,4122.0513,4084.1026,4091.2821,4097.4359,4088.2051,4098.9744,4102.0513,4082.0513,4105.641,4097.9487,4086.1538
4076.4103,4113.8462,4093.3333,4087.6923,4102.5641,4098.4615,4104.6154,4111.7949,4093.3333,4110.2564,4102.5641,4100
4062.5641,4109.7436,4078.4615,4080.5128,4073.8462,4097.4359,4090.2564,4104.6154,4084.6154,4094.8718,4085.1282,4089.7436
4055.8974,4115.3846,4077.4359,4083.5897,4083.0769,4097.4359,4093.8462,4108.7179,4086.6667,4096.4103,4086.6667,4084.1026
4053.8462,4116.9231,4090.2564,4086.1538,4115.8974,4101.5385,4103.5897,4115.8974,4093.8462,4109.2308,4097.4359,4091.2821
4059.4872,4117.9487,4092.3077,4085.641,4129.7436,4106.6667,4102.5641,4111.2821,4091.7949,4108.2051,4092.8205,4091.7949
4075.3846,4115.3846,4082.5641,4085.641,4122.0513,4112.3077,4096.9231,4103.0769,4086.1538,4098.4615,4082.5641,4086.1538
4065.1282,4111.7949,4083.5897,4078.9744,4097.4359,4098.4615,4093.8462,4102.0513,4085.1282,4097.9487,4080.5128,4085.641
4043.5897,4112.8205,4098.9744,4077.9487,4077.4359,4083.0769,4091.7949,4105.641,4089.2308,4106.6667,4083.0769,4090.2564
4064.1026,4113.3333,4105.641,4087.6923,4100,4102.5641,4094.8718,4106.6667,4090.7692,4108.2051,4083.5897,4092.3077
4092.3077,4115.3846,4096.9231,4092.3077,4116.4103,4115.3846,4102.5641,4109.7436,4090.7692,4106.6667,4086.6667,4092.3077
4077.9487,4115.3846,4090.2564,4087.1795,4081.0256,4090.7692,4104.6154,4108.7179,4093.3333,4110.7692,4093.8462,4092.8205
4061.0256,4116.4103,4095.8974,4081.0256,4075.3846,4090.7692,4106.1538,4105.1282,4086.6667,4111.2821,4091.2821,4091.2821
4081.0256,4121.0256,4105.1282,4086.6667,4110.2564,4113.8462,4108.7179,4111.7949,4083.0769,4110.7692,4089.7436,4096.9231
4085.1282,4118.9744,4100.5128,4092.3077,4115.8974,4113.8462,4105.641,4112.8205,4091.7949,4110.2564,4094.359,4099.4872
4061.0256,4112.8205,4088.7179,4082.0513,4111.2821,4113.8462,4105.1282,4106.1538,4089.2308,4101.5385,4088.7179,4087.1795
4071.2821,4116.9231,4095.8974,4083.5897,4123.0769,4119.4872,4114.8718,4118.4615,4090.2564,4104.6154,4094.359,4096.9231
4089.7436,4120,4101.0256,4094.359,4104.1026,4105.1282,4114.359,4121.5385,4096.4103,4112.8205,4100.5128,4110.7692
4072.8205,4111.7949,4089.2308,4089.7436,4089.7436,4102.5641,4103.5897,4105.1282,4085.641,4103.5897,4084.1026,4091.7949
4076.9231,4116.9231,4101.5385,4095.8974,4117.9487,4120,4110.2564,4109.7436,4084.1026,4107.6923,4084.1026,4092.8205
4092.3077,4126.6667,4112.8205,4108.7179,4116.4103,4117.4359,4116.4103,4116.9231,4094.8718,4116.9231,4097.9487,4107.6923
4081.0256,4115.8974,4094.359,4102.0513,4089.2308,4100,4103.5897,4109.2308,4091.2821,4108.2051,4090.7692,4097.9487
4090.7692,4110.2564,4101.0256,4104.1026,4102.5641,4093.8462,4102.5641,4113.3333,4093.8462,4117.4359,4090.2564,4100
4104.6154,4115.3846,4115.3846,4110.2564,4137.9487,4111.7949,4112.8205,4117.9487,4102.0513,4124.6154,4100.5128,4110.2564
4075.8974,4111.2821,4093.3333,4094.359,4108.7179,4116.4103,4101.5385,4106.1538,4093.3333,4101.0256,4088.2051,4091.7949
4065.1282,4111.2821,4088.2051,4084.6154,4045.1282,4086.1538,4088.7179,4101.0256,4088.2051,4095.3846,4081.5385,4086.6667
4086.6667,4120,4107.1795,4093.8462,4061.5385,4085.1282,4100.5128,4110.7692,4099.4872,4120,4100.5128,4108.7179
4087.6923,4123.5897,4109.7436,4100,4129.2308,4119.4872,4115.3846,4122.5641,4106.1538,4124.6154,4107.6923,4109.7436
4091.7949,4123.5897,4110.7692,4107.1795,4156.9231,4128.7179,4118.9744,4126.6667,4108.2051,4118.9744,4106.1538,4106.6667
4104.6154,4121.0256,4111.2821,4112.3077,4135.8974,4117.4359,4116.4103,4113.3333,4104.1026,4122.0513,4108.7179,4111.7949
4085.641,4114.359,4093.8462,4098.9744,4105.641,4110.7692,4109.2308,4106.1538,4091.7949,4113.8462,4101.0256,4105.1282
4067.6923,4112.3077,4088.7179,4092.8205,4091.2821,4100,4104.1026,4112.8205,4093.3333,4107.6923,4094.8718,4103.0769
4076.9231,4115.3846,4091.2821,4096.9231,4105.641,4106.1538,4104.6154,4114.8718,4098.9744,4110.7692,4102.5641,4107.6923
4090.2564,4116.4103,4084.6154,4094.359,4115.3846,4125.1282,4108.2051,4116.4103,4091.2821,4110.7692,4108.2051,4104.6154
4091.7949,4115.8974,4086.6667,4094.359,4100,4118.9744,4114.8718,4122.0513,4089.2308,4112.8205,4108.2051,4103.0769
4080,4116.4103,4088.7179,4097.4359,4116.9231,4122.0513,4125.1282,4123.0769,4094.359,4112.8205,4105.1282,4103.5897
4083.5897,4115.8974,4087.6923,4094.8718,4142.0513,4133.8462,4128.7179,4123.0769,4097.4359,4114.8718,4109.2308,4108.7179
4090.2564,4114.8718,4086.6667,4085.1282,4100.5128,4110.7692,4114.359,4124.1026,4103.0769,4114.8718,4113.3333,4107.1795
4072.3077,4119.4872,4075.8974,4079.4872,4085.1282,4103.0769,4100.5128,4115.3846,4109.2308,4103.5897,4103.0769,4093.8462
4058.9744,4116.4103,4063.5897,4078.4615,4133.8462,4132.3077,4102.0513,4103.5897,4108.2051,4090.2564,4091.7949,4084.1026
4068.2051,4110.7692,4065.1282,4092.3077,4100,4111.2821,4100,4103.0769,4103.0769,4087.1795,4094.359,4085.641
4069.7436,4114.359,4068.2051,4131.2821,4046.6667,4076.9231,4096.4103,4105.641,4099.4872,4086.1538,4094.359,4084.1026
4050.7692,4117.4359,4058.9744,4163.5897,4105.1282,4111.2821,4101.0256,4104.6154,4095.3846,4078.9744,4085.641,4072.8205
4052.3077,4115.3846,4062.5641,4156.9231,4138.4615,4125.1282,4102.5641,4106.6667,4097.4359,4080.5128,4084.1026,4074.359
4074.8718,4115.8974,4084.1026,4128.7179,4083.5897,4083.5897,4100,4108.7179,4109.2308,4094.8718,4100.5128,4093.8462
4079.4872,4119.4872,4087.6923,4106.6667,4087.1795,4087.6923,4109.2308,4104.1026,4108.7179,4099.4872,4105.1282,4097.4359
4063.0769,4117.9487,4070.2564,4094.359,4126.6667,4121.0256,4112.3077,4102.5641,4094.8718,4087.6923,4083.0769,4075.8974
4061.5385,4113.3333,4066.6667,4089.2308,4091.7949,4102.5641,4101.5385,4109.2308,4096.4103,4084.6154,4073.3333,4070.7692
4075.3846,4115.3846,4080.5128,4082.5641,4068.7179,4084.1026,4102.5641,4111.7949,4103.5897,4094.8718,4087.6923,4087.6923
4078.9744,4116.4103,4082.0513,4071.7949,4093.8462,4103.0769,4108.2051,4108.7179,4101.0256,4099.4872,4092.8205,4092.3077
4076.4103,4115.3846,4080,4071.7949,4098.9744,4109.7436,4105.641,4103.5897,4099.4872,4097.4359,4090.2564,4088.7179
4060.5128,4113.3333,4076.4103,4068.7179,4091.2821,4103.0769,4100,4097.9487,4088.2051,4089.2308,4085.1282,4077.4359
4060,4115.8974,4082.0513,4062.5641,4110.2564,4107.1795,4102.5641,4101.0256,4082.5641,4092.3077,4085.1282,4077.4359
4095.8974,4124.1026,4100,4074.8718,4111.7949,4106.1538,4108.2051,4110.7692,4097.4359,4106.6667,4095.8974,4095.8974
4105.641,4118.9744,4094.359,4074.8718,4078.4615,4098.9744,4105.641,4107.6923,4100,4105.1282,4095.8974,4096.9231
4078.4615,4111.2821,4078.9744,4052.3077,4093.8462,4110.7692,4106.1538,4100.5128,4090.7692,4096.9231,4090.2564,4087.1795
4081.5385,4117.4359,4095.8974,4083.5897,4137.9487,4122.0513,4113.3333,4114.8718,4100.5128,4110.7692,4103.5897,4101.5385
4100.5128,4117.9487,4107.6923,4161.0256,4125.641,4115.3846,4112.8205,4123.0769,4107.1795,4123.5897,4112.3077,4112.3077
4082.5641,4110.7692,4094.8718,4178.9744,4100,4109.2308,4109.7436,4107.1795,4094.359,4115.3846,4104.6154,4103.0769
4073.8462,4112.3077,4095.3846,4138.4615,4108.7179,4110.7692,4114.8718,4105.1282,4090.2564,4114.8718,4103.0769,4103.5897
4101.5385,4116.9231,4107.1795,4117.9487,4104.1026,4108.2051,4114.8718,4116.9231,4094.359,4125.1282,4108.7179,4111.7949
4109.2308,4114.359,4105.1282,4113.8462,4095.8974,4106.6667,4108.7179,4111.7949,4091.7949,4121.5385,4108.2051,4107.6923
4091.7949,4111.2821,4100.5128,4095.8974,4110.2564,4108.2051,4106.6667,4102.0513,4087.6923,4109.2308,4103.0769,4101.0256
4086.6667,4113.8462,4096.9231,4080,4097.9487,4100.5128,4101.5385,4103.5897,4087.6923,4105.1282,4099.4872,4102.0513
4093.8462,4115.3846,4092.3077,4074.8718,4093.8462,4103.5897,4097.9487,4108.7179,4092.8205,4109.7436,4107.6923,4108.2051
4103.0769,4117.4359,4103.0769,4080,4138.4615,4121.0256,4112.3077,4120,4098.9744,4117.9487,4123.0769,4115.3846
4097.9487,4120,4109.7436,4080,4145.641,4121.5385,4123.0769,4119.4872,4094.359,4117.4359,4115.8974,4111.7949
4077.4359,4114.359,4095.8974,4063.0769,4112.3077,4113.3333,4117.4359,4105.1282,4086.1538,4110.7692,4103.0769,4103.0769
4076.4103,4117.4359,4100.5128,4056.9231,4107.6923,4110.2564,4119.4872,4113.3333,4092.3077,4121.5385,4115.3846,4109.7436
4086.1538,4121.5385,4109.7436,4062.0513,4088.2051,4096.4103,4117.9487,4121.5385,4093.8462,4125.641,4115.3846,4109.2308
4079.4872,4110.2564,4094.359,4048.7179,4076.4103,4096.9231,4105.1282,4102.5641,4081.5385,4102.0513,4092.3077,4086.6667
4082.0513,4110.2564,4088.7179,4032.8205,4119.4872,4120.5128,4109.7436,4105.641,4084.6154,4097.9487,4096.4103,4087.1795
4098.4615,4125.1282,4109.7436,4068.7179,4132.8205,4116.9231,4125.1282,4129.2308,4104.6154,4124.1026,4124.6154,4116.4103
4092.3077,4125.1282,4107.6923,4144.1026,4110.2564,4098.9744,4120.5128,4113.8462,4095.3846,4116.4103,4115.8974,4107.6923
4067.6923,4111.2821,4076.9231,4193.3333,4117.9487,4109.7436,4101.5385,4085.641,4068.2051,4076.4103,4080,4064.6154
4048.7179,4109.7436,4066.1538,4213.8462,4116.4103,4110.7692,4088.2051,4092.8205,4067.6923,4063.0769,4068.2051,4050.7692
4054.359,4116.9231,4081.5385,4247.1795,4085.641,4082.5641,4090.7692,4106.6667,4086.6667,4083.0769,4084.6154,4071.7949
4074.359,4118.4615,4091.2821,4290.2564,4080,4073.8462,4100,4104.1026,4093.8462,4100,4100.5128,4090.7692
4070.2564,4117.4359,4084.6154,4313.8462,4094.359,4094.8718,4100.5128,4102.5641,4086.6667,4091.2821,4092.8205,4083.5897
4055.8974,4117.9487,4083.5897,4332.8205,4104.6154,4108.2051,4099.4872,4106.6667,4087.1795,4085.1282,4086.6667,4075.8974
4064.6154,4115.8974,4094.8718,4364.1026,4109.2308,4106.1538,4107.6923,4109.7436,4098.9744,4100,4092.3077,4087.1795
4075.3846,4116.4103,4102.0513,4394.359,4106.1538,4111.2821,4113.8462,4115.3846,4102.0513,4111.7949,4092.8205,4093.8462
4078.4615,4115.3846,4102.0513,4418.4615,4106.1538,4111.2821,4109.7436,4111.7949,4098.4615,4105.641,4092.3077,4088.2051
4087.1795,4116.9231,4103.5897,4446.6667,4116.9231,4103.0769,4111.7949,4109.2308,4108.7179,4109.7436,4108.2051,4095.8974
4078.4615,4116.9231,4096.4103,4468.2051,4100.5128,4104.1026,4109.2308,4108.2051,4110.2564,4110.7692,4106.6667,4095.3846
4057.4359,4112.8205,4087.1795,4478.9744,4070.7692,4102.0513,4093.3333,4094.8718,4087.1795,4093.3333,4082.0513,4072.3077
4069.7436,4118.9744,4100,4510.7692,4099.4872,4094.8718,4096.9231,4102.0513,4089.7436,4099.4872,4091.7949,4081.5385
4098.4615,4123.5897,4114.359,4552.3077,4149.2308,4107.6923,4116.9231,4126.1538,4114.8718,4120.5128,4115.3846,4106.1538
4088.7179,4116.4103,4109.2308,4566.6667,4135.3846,4121.0256,4117.9487,4123.0769,4113.8462,4118.9744,4111.7949,4102.5641
4072.3077,4113.3333,4103.5897,4574.8718,4101.0256,4113.3333,4110.2564,4111.2821,4106.6667,4112.3077,4108.2051,4100
4087.1795,4121.0256,4108.7179,4606.6667,4111.7949,4105.1282,4111.2821,4115.8974,4112.3077,4115.8974,4115.3846,4110.7692
4095.3846,4122.5641,4109.7436,4633.8462,4127.6923,4108.7179,4111.7949,4111.2821,4106.1538,4109.2308,4108.7179,4101.0256
4087.1795,4116.4103,4107.1795,4644.6154,4118.9744,4116.9231,4113.8462,4106.1538,4096.4103,4103.0769,4103.0769,4087.6923
4092.3077,4118.9744,4110.7692,4665.641,4113.3333,4114.359,4119.4872,4121.0256,4103.5897,4115.3846,4116.4103,4101.0256
4099.4872,4122.0513,4107.6923,4688.2051,4111.7949,4106.6667,4113.3333,4124.6154,4110.2564,4120,4122.0513,4105.1282
4084.1026,4115.8974,4100.5128,4699.4872,4085.641,4101.0256,4105.1282,4106.1538,4107.6923,4110.2564,4110.2564,4090.7692
4072.3077,4114.359,4102.0513,4709.7436,4071.2821,4101.5385,4109.2308,4100.5128,4105.1282,4102.0513,4098.9744,4089.7436
4095.8974,4119.4872,4113.3333,4727.6923,4121.5385,4116.4103,4122.5641,4117.9487,4111.7949,4110.2564,4113.8462,4107.1795
4111.2821,4120.5128,4105.641,4738.9744,4157.9487,4132.3077,4124.6154,4119.4872,4109.7436,4111.2821,4122.0513,4101.0256
4084.1026,4117.9487,4086.6667,4741.0256,4122.5641,4126.1538,4112.8205,4108.7179,4101.0256,4097.9487,4105.1282,4078.9744
4077.4359,4119.4872,4098.9744,4759.4872,4101.0256,4111.7949,4117.4359,4118.9744,4118.4615,4112.8205,4112.3077,4096.9231
4094.8718,4120.5128,4113.8462,4778.9744,4108.7179,4110.2564,4126.6667,4125.641,4131.2821,4126.6667,4124.6154,4111.7949
4092.3077,4118.9744,4105.1282,4779.4872,4097.9487,4106.6667,4116.9231,4114.359,4115.8974,4111.7949,4111.2821,4092.3077
4097.9487,4120.5128,4105.641,4790.7692,4106.6667,4111.7949,4116.4103,4112.3077,4112.8205,4110.2564,4110.2564,4092.8205
4114.359,4126.1538,4116.4103,4816.4103,4134.8718,4124.6154,4129.2308,4122.5641,4123.5897,4124.1026,4125.1282,4110.2564
4105.1282,4121.0256,4110.2564,4818.4615,4135.3846,4131.2821,4127.1795,4124.1026,4117.9487,4118.4615,4124.1026,4103.0769
4092.8205,4115.8974,4107.1795,4811.7949,4117.9487,4125.1282,4120.5128,4114.8718,4108.7179,4107.6923,4115.8974,4091.2821
4096.9231,4122.5641,4114.359,4826.1538,4108.7179,4109.2308,4117.4359,4105.641,4114.359,4110.7692,4113.8462,4093.8462
4094.8718,4123.0769,4112.3077,4837.9487,4115.8974,4111.2821,4111.7949,4106.1538,4117.4359,4110.2564,4107.1795,4092.8205
4087.1795,4115.3846,4106.6667,4836.9231,4117.9487,4118.9744,4110.7692,4109.7436,4110.7692,4103.5897,4102.0513,4087.1795
4089.2308,4114.359,4101.0256,4836.9231,4090.2564,4104.6154,4108.7179,4102.5641,4108.2051,4099.4872,4096.4103,4085.641
4105.641,4124.1026,4107.6923,4846.6667,4078.4615,4091.7949,4108.7179,4110.7692,4121.0256,4108.2051,4094.8718,4093.3333
4128.7179,4126.6667,4129.2308,4860,4117.9487,4109.2308,4120.5128,4130.2564,4133.3333,4129.7436,4110.2564,4110.7692
4125.641,4118.4615,4132.8205,4855.3846,4145.1282,4123.5897,4126.6667,4123.5897,4114.8718,4129.7436,4111.2821,4108.7179
4095.8974,4113.8462,4112.8205,4839.4872,4140.5128,4126.6667,4119.4872,4104.1026,4085.641,4103.5897,4086.1538,4079.4872
4089.7436,4117.4359,4113.3333,4844.1026,4134.8718,4129.2308,4120,4111.2821,4098.9744,4106.1538,4087.1795,4079.4872
4108.7179,4123.5897,4126.6667,4859.4872,4124.6154,4122.0513,4129.2308,4129.2308,4125.641,4127.6923,4110.2564,4103.0769
4112.3077,4122.5641,4113.8462,4856.9231,4123.0769,4124.1026,4128.2051,4126.6667,4114.359,4117.4359,4106.6667,4096.4103
4107.1795,4121.0256,4106.1538,4854.359,4129.2308,4128.2051,4124.6154,4117.9487,4103.0769,4107.6923,4101.0256,4083.5897
4121.0256,4121.5385,4122.5641,4864.1026,4111.7949,4109.2308,4125.641,4117.9487,4113.8462,4118.4615,4115.8974,4097.9487
4131.2821,4120,4125.641,4860,4095.3846,4099.4872,4124.1026,4121.0256,4115.3846,4117.4359,4118.4615,4105.1282
4116.4103,4124.1026,4109.2308,4846.1538,4124.1026,4126.6667,4125.1282,4120.5128,4104.1026,4103.0769,4104.1026,4087.6923
4106.1538,4126.6667,4108.7179,4849.7436,4142.0513,4144.1026,4133.8462,4116.9231,4100.5128,4101.5385,4100,4077.9487
4116.9231,4120,4119.4872,4855.8974,4105.641,4124.1026,4131.7949,4114.359,4109.2308,4109.7436,4108.7179,4086.1538
4134.359,4123.5897,4132.8205,4854.359,4100,4110.7692,4130.2564,4127.6923,4121.0256,4122.5641,4125.641,4104.6154
4137.4359,4129.2308,4136.4103,4853.8462,4150.7692,4134.359,4136.4103,4135.3846,4116.4103,4129.2308,4127.1795,4111.2821
4132.3077,4123.5897,4126.6667,4847.6923,4150.2564,4142.5641,4130.2564,4120.5128,4102.0513,4120,4111.7949,4106.1538
4137.9487,4124.1026,4131.2821,4842.0513,4105.641,4114.8718,4120.5128,4117.9487,4108.7179,4123.5897,4117.4359,4121.5385
4140.5128,4127.6923,4134.8718,4837.9487,4115.8974,4116.9231,4128.2051,4129.7436,4119.4872,4132.8205,4127.6923,4124.1026
4136.9231,4127.1795,4126.1538,4835.3846,4146.6667,4141.5385,4137.4359,4129.2308,4114.359,4128.2051,4121.0256,4108.2051
4148.2051,4126.1538,4132.3077,4840.5128,4143.5897,4133.3333,4137.4359,4123.5897,4111.7949,4127.1795,4118.4615,4115.3846
4161.5385,4124.6154,4147.6923,4843.5897,4118.4615,4110.2564,4132.8205,4122.5641,4116.4103,4130.7692,4125.641,4130.2564
4136.9231,4129.2308,4132.8205,4823.0769,4104.6154,4118.9744,4124.1026,4115.3846,4112.3077,4123.0769,4116.4103,4114.359
4116.9231,4132.3077,4123.5897,4812.3077,4122.5641,4137.4359,4126.1538,4116.9231,4112.3077,4120.5128,4108.7179,4101.5385
4145.641,4129.7436,4144.6154,4828.2051,4136.9231,4127.6923,4136.4103,4130.7692,4122.0513,4134.8718,4124.6154,4120
4167.1795,4127.6923,4149.2308,4829.2308,4125.1282,4114.359,4137.4359,4127.6923,4123.5897,4141.0256,4132.3077,4130.7692
4142.5641,4125.1282,4134.359,4812.3077,4131.2821,4131.2821,4135.8974,4117.4359,4118.4615,4130.7692,4125.641,4120
4124.6154,4121.5385,4131.2821,4806.6667,4144.6154,4143.0769,4139.4872,4126.1538,4120.5128,4123.0769,4129.7436,4114.359
4138.4615,4118.4615,4137.4359,4808.2051,4124.6154,4126.1538,4138.9744,4128.7179,4118.9744,4127.1795,4136.9231,4122.5641
4143.5897,4118.4615,4137.4359,4798.9744,4117.9487,4124.6154,4137.9487,4120.5128,4113.3333,4136.4103,4136.4103,4126.1538
4136.4103,4116.9231,4132.8205,4786.1538,4132.8205,4138.4615,4138.9744,4125.641,4119.4872,4137.4359,4134.8718,4120
4141.5385,4119.4872,4134.359,4781.5385,4129.2308,4137.4359,4140,4134.8718,4125.641,4134.359,4136.9231,4123.5897
4164.1026,4130.2564,4151.7949,4789.2308,4128.7179,4134.359,4150.2564,4142.5641,4137.9487,4150.2564,4153.3333,4145.1282
4172.8205,4131.7949,4158.4615,4792.3077,4137.9487,4137.4359,4156.4103,4142.0513,4147.1795,4164.1026,4165.641,4155.8974
4144.6154,4123.0769,4134.359,4768.2051,4133.8462,4141.0256,4143.5897,4126.6667,4122.0513,4138.9744,4138.9744,4127.6923
4133.8462,4124.1026,4132.8205,4751.2821,4120.5128,4137.9487,4134.359,4126.6667,4113.3333,4129.2308,4128.7179,4118.9744
4161.0256,4132.3077,4156.9231,4762.5641,4129.2308,4131.7949,4147.6923,4137.4359,4138.9744,4153.8462,4157.4359,4147.6923
4169.2308,4128.7179,4152.8205,4760.5128,4144.6154,4133.3333,4157.4359,4131.2821,4136.9231,4155.3846,4158.4615,4146.1538
4146.1538,4117.9487,4131.7949,4740,4137.9487,4142.0513,4146.6667,4123.0769,4116.9231,4134.8718,4135.3846,4118.4615
4139.4872,4116.9231,4133.8462,4730.7692,4122.5641,4135.8974,4137.4359,4126.6667,4121.0256,4135.3846,4133.3333,4116.9231
4144.6154,4125.641,4138.9744,4730.2564,4106.6667,4127.1795,4136.9231,4128.2051,4126.6667,4142.5641,4136.4103,4125.1282
4143.5897,4130.2564,4139.4872,4728.7179,4085.641,4127.1795,4136.4103,4130.2564,4123.5897,4143.0769,4138.4615,4125.1282
4137.4359,4125.1282,4141.0256,4718.9744,4092.3077,4135.8974,4144.1026,4132.3077,4118.9744,4140.5128,4135.3846,4122.5641
4135.3846,4116.9231,4135.3846,4703.5897,4126.6667,4151.2821,4150.2564,4124.1026,4106.1538,4130.7692,4117.9487,4108.7179
4147.1795,4123.5897,4134.359,4701.0256,4121.0256,4145.641,4144.1026,4120,4104.6154,4130.2564,4118.9744,4108.2051
4150.7692,4131.2821,4133.8462,4700.5128,4087.6923,4128.2051,4138.9744,4124.6154,4118.4615,4140.5128,4133.3333,4126.1538
4145.641,4122.5641,4126.6667,4683.5897,4083.5897,4124.1026,4140,4123.5897,4124.1026,4139.4872,4132.3077,4127.1795
4152.3077,4121.5385,4133.3333,4676.9231,4092.8205,4126.1538,4137.4359,4128.2051,4121.5385,4138.4615,4134.8718,4121.5385
4151.7949,4122.5641,4141.5385,4679.4872,4101.0256,4135.3846,4137.9487,4135.3846,4122.0513,4138.4615,4134.8718,4123.5897
4143.5897,4118.9744,4135.8974,4669.7436,4107.1795,4148.2051,4141.5385,4132.8205,4129.7436,4136.4103,4127.6923,4123.5897
4153.8462,4127.1795,4136.4103,4662.0513,4093.8462,4138.9744,4140,4132.3077,4142.5641,4147.6923,4143.5897,4132.8205
4165.641,4129.7436,4146.6667,4661.0256,4086.6667,4127.1795,4140.5128,4138.9744,4146.6667,4157.9487,4161.0256,4148.7179
4153.3333,4116.4103,4141.5385,4650.7692,4104.1026,4143.0769,4141.5385,4131.7949,4131.7949,4142.0513,4141.0256,4136.9231
4146.6667,4112.3077,4134.8718,4643.5897,4106.1538,4145.641,4137.9487,4121.5385,4124.1026,4131.2821,4129.2308,4122.0513
4158.4615,4122.0513,4141.5385,4644.1026,4104.6154,4134.359,4140,4134.359,4137.4359,4144.6154,4145.641,4136.4103
4160.5128,4119.4872,4146.6667,4637.4359,4112.8205,4134.8718,4142.0513,4140.5128,4140.5128,4147.1795,4143.5897,4144.1026
4142.0513,4109.2308,4137.4359,4621.5385,4095.8974,4132.3077,4137.4359,4121.5385,4123.5897,4129.2308,4121.5385,4123.0769
4129.2308,4111.7949,4124.6154,4606.1538,4072.3077,4128.7179,4136.4103,4114.359,4117.9487,4119.4872,4112.8205,4110.7692
4142.5641,4118.4615,4126.1538,4599.4872,4079.4872,4134.8718,4138.4615,4126.6667,4132.8205,4128.7179,4122.0513,4121.5385
4153.3333,4122.5641,4137.4359,4606.6667,4099.4872,4140,4141.0256,4126.6667,4140.5128,4137.9487,4131.2821,4130.7692
4156.4103,4127.1795,4145.641,4610.2564,4102.5641,4143.0769,4147.1795,4123.5897,4142.0513,4138.9744,4135.8974,4130.7692
4161.0256,4128.2051,4148.7179,4601.5385,4104.1026,4153.8462,4151.7949,4138.4615,4152.8205,4148.7179,4149.2308,4141.0256
4157.4359,4127.6923,4155.3846,4599.4872,4124.1026,4163.0769,4155.8974,4148.2051,4163.5897,4161.5385,4158.4615,4153.3333
4162.0513,4124.6154,4158.9744,4603.0769,4109.2308,4150.2564,4154.8718,4133.8462,4158.4615,4161.5385,4154.8718,4149.2308
4174.359,4118.4615,4150.7692,4591.2821,4060.5128,4129.2308,4142.0513,4124.6154,4147.6923,4154.359,4150.7692,4140
4169.7436,4121.0256,4146.1538,4581.5385,4086.1538,4138.9744,4141.5385,4136.9231,4149.7436,4151.7949,4151.2821,4142.5641
4173.8462,4126.6667,4154.8718,4585.1282,4157.9487,4169.7436,4160,4144.6154,4158.9744,4156.4103,4156.9231,4154.8718
4189.2308,4122.5641,4153.3333,4577.9487,4150.7692,4171.2821,4160.5128,4140,4159.4872,4156.4103,4159.4872,4157.9487
4176.4103,4122.0513,4137.9487,4565.641,4113.3333,4152.8205,4151.2821,4140,4155.3846,4154.359,4156.9231,4153.3333
4167.1795,4130.2564,4140.5128,4570.2564,4118.9744,4151.7949,4161.0256,4143.5897,4154.8718,4162.0513,4165.641,4156.4103
4174.8718,4123.0769,4142.0513,4563.0769,4118.4615,4158.4615,4163.0769,4140,4153.8462,4160,4168.2051,4151.7949
4170.7692,4112.3077,4134.359,4546.6667,4113.3333,4158.9744,4153.8462,4135.3846,4153.3333,4150.2564,4156.4103,4141.0256
4167.6923,4123.0769,4138.9744,4546.6667,4120,4160,4161.0256,4145.1282,4153.8462,4158.9744,4154.8718,4146.1538
4175.8974,4126.6667,4145.641,4545.641,4111.2821,4165.1282,4170.7692,4157.9487,4151.2821,4173.8462,4161.5385,4157.4359
4181.0256,4117.9487,4146.1538,4535.8974,4108.2051,4169.7436,4168.2051,4152.8205,4151.7949,4169.7436,4160,4155.3846
4180.5128,4125.1282,4148.7179,4536.9231,4122.0513,4167.6923,4165.641,4142.5641,4153.8462,4165.641,4165.1282,4156.9231
4194.8718,4137.9487,4160.5128,4540,4140,4166.1538,4171.2821,4150.2564,4163.0769,4182.5641,4184.1026,4177.4359
4212.3077,4135.8974,4167.6923,4530.7692,4155.8974,4176.9231,4173.3333,4155.3846,4172.3077,4193.3333,4187.6923,4185.641
4205.1282,4124.6154,4162.0513,4525.641,4150.2564,4182.0513,4170.2564,4145.641,4167.6923,4184.1026,4174.8718,4173.3333
4179.4872,4120,4151.7949,4521.0256,4138.9744,4177.4359,4174.359,4148.7179,4160.5128,4171.2821,4167.6923,4165.641
4181.5385,4124.1026,4148.7179,4504.6154,4152.8205,4180,4184.6154,4160.5128,4163.5897,4169.2308,4166.6667,4168.2051
4204.6154,4124.1026,4153.3333,4495.3846,4157.9487,4185.1282,4185.641,4156.9231,4172.3077,4175.3846,4173.8462,4173.3333
4199.4872,4122.5641,4153.3333,4500.5128,4142.5641,4179.4872,4182.5641,4151.2821,4168.7179,4174.8718,4178.4615,4170.7692
4186.1538,4131.7949,4154.8718,4501.0256,4142.5641,4170.7692,4184.1026,4153.8462,4155.3846,4168.7179,4178.4615,4165.641
4197.9487,4130.7692,4158.4615,4491.2821,4139.4872,4170.7692,4181.5385,4150.2564,4152.8205,4172.3077,4178.4615,4172.3077
4211.7949,4125.641,4165.1282,4489.2308,4142.5641,4177.9487,4184.1026,4157.9487,4167.1795,4184.6154,4183.5897,4189.7436
4210.7692,4133.3333,4173.3333,4488.7179,4166.6667,4188.2051,4194.8718,4171.2821,4174.359,4189.2308,4188.7179,4201.0256
4206.1538,4131.7949,4169.7436,4479.4872,4150.7692,4185.641,4191.2821,4163.5897,4167.1795,4187.6923,4192.3077,4197.9487
4205.1282,4122.5641,4158.4615,4468.7179,4127.6923,4175.3846,4181.0256,4148.2051,4165.641,4185.641,4190.2564,4191.2821
4210.2564,4123.0769,4161.5385,4461.0256,4166.6667,4189.7436,4184.1026,4148.2051,4170.2564,4185.1282,4186.6667,4193.8462
4220.5128,4133.3333,4174.8718,4461.0256,4190.7692,4201.0256,4190.2564,4160,4172.8205,4195.8974,4195.8974,4204.1026
4217.4359,4133.3333,4175.3846,4460,4156.4103,4184.6154,4187.1795,4165.1282,4172.3077,4201.5385,4202.0513,4202.0513
4210.2564,4121.5385,4169.2308,4446.6667,4142.0513,4168.2051,4186.6667,4158.9744,4168.2051,4191.2821,4188.2051,4191.7949
4212.8205,4116.9231,4165.641,4430.2564,4156.9231,4175.8974,4187.6923,4152.8205,4163.5897,4183.5897,4177.4359,4187.6923
4207.1795,4123.5897,4158.9744,4425.1282,4156.4103,4187.1795,4183.5897,4154.359,4163.0769,4185.1282,4177.4359,4183.0769
4198.9744,4132.8205,4165.641,4428.7179,4151.7949,4175.3846,4182.0513,4158.9744,4168.2051,4186.6667,4178.9744,4185.641
4211.2821,4127.1795,4174.8718,4423.5897,4155.3846,4173.3333,4182.5641,4156.9231,4168.7179,4189.2308,4186.1538,4199.4872
4212.8205,4118.4615,4161.0256,4410.7692,4150.7692,4184.6154,4183.5897,4150.7692,4157.9487,4187.1795,4184.1026,4194.8718
4197.4359,4127.1795,4154.359,4405.1282,4146.1538,4178.4615,4185.641,4152.3077,4151.2821,4180.5128,4169.2308,4179.4872
4207.1795,4135.3846,4168.7179,4411.2821,4144.6154,4166.1538,4185.1282,4164.6154,4166.1538,4189.7436,4176.9231,4188.2051
4230.7692,4130.7692,4172.8205,4411.2821,4155.3846,4178.9744,4186.1538,4172.8205,4181.5385,4204.1026,4200.5128,4205.641
4229.2308,4128.7179,4167.6923,4399.4872,4182.0513,4201.0256,4191.2821,4168.7179,4177.4359,4202.0513,4205.641,4204.1026
4214.359,4134.359,4172.3077,4392.3077,4174.8718,4192.3077,4190.7692,4167.6923,4169.2308,4197.4359,4203.0769,4203.5897
4212.8205,4134.359,4172.3077,4391.7949,4147.6923,4172.8205,4186.1538,4170.2564,4171.2821,4202.0513,4205.641,4205.1282
4219.4872,4126.6667,4157.4359,4381.5385,4172.3077,4179.4872,4184.1026,4166.6667,4170.2564,4196.4103,4196.4103,4193.3333
4215.8974,4122.0513,4148.2051,4363.5897,4196.4103,4196.4103,4185.641,4167.1795,4163.5897,4187.1795,4182.5641,4188.7179
4206.6667,4127.1795,4156.4103,4363.5897,4158.4615,4181.5385,4187.1795,4169.7436,4167.6923,4197.4359,4184.1026,4200
4211.7949,4132.8205,4160,4367.1795,4140.5128,4164.1026,4181.5385,4156.4103,4167.1795,4198.9744,4183.5897,4195.8974
4213.8462,4129.2308,4145.641,4352.8205,4185.1282,4183.5897,4175.3846,4149.7436,4154.8718,4184.6154,4173.3333,4176.9231
4203.5897,4122.0513,4144.1026,4340,4182.5641,4188.7179,4173.3333,4158.9744,4151.7949,4182.5641,4170.7692,4176.4103
4199.4872,4120.5128,4149.7436,4331.2821,4128.2051,4164.6154,4168.2051,4153.3333,4151.7949,4180,4167.6923,4182.5641
4214.8718,4127.1795,4150.2564,4329.7436,4129.7436,4158.9744,4168.2051,4153.3333,4156.9231,4183.5897,4174.359,4191.7949
4244.1026,4136.9231,4164.1026,4337.9487,4185.1282,4180.5128,4182.5641,4173.3333,4173.3333,4208.2051,4200,4212.8205
4243.0769,4134.359,4170.2564,4329.2308,4205.1282,4192.8205,4188.2051,4172.8205,4173.3333,4207.1795,4200.5128,4211.2821
4211.2821,4123.0769,4156.4103,4309.2308,4168.7179,4179.4872,4179.4872,4159.4872,4158.4615,4183.0769,4174.8718,4188.2051
4201.5385,4120.5128,4147.6923,4306.6667,4144.1026,4164.6154,4181.5385,4166.1538,4158.9744,4178.9744,4165.641,4176.9231
4211.7949,4120.5128,4146.1538,4306.1538,4156.9231,4166.6667,4187.1795,4175.3846,4163.0769,4176.9231,4166.1538,4173.3333
4198.9744,4116.9231,4134.8718,4288.7179,4174.359,4175.3846,4184.1026,4165.1282,4147.1795,4157.9487,4147.1795,4155.8974
4178.4615,4117.4359,4132.3077,4276.9231,4165.641,4173.8462,4183.0769,4154.359,4128.7179,4144.6154,4126.1538,4138.9744
4186.1538,4120.5128,4141.0256,4277.4359,4143.5897,4164.1026,4182.5641,4156.9231,4131.2821,4149.2308,4131.2821,4137.4359
4213.8462,4126.6667,4156.9231,4283.0769,4160.5128,4167.1795,4187.6923,4172.3077,4161.0256,4173.3333,4161.0256,4162.5641
4221.5385,4127.1795,4167.6923,4282.0513,4177.9487,4172.8205,4191.7949,4170.7692,4172.3077,4187.1795,4170.7692,4185.1282
4206.6667,4121.0256,4155.8974,4272.8205,4155.3846,4161.0256,4178.4615,4152.3077,4156.4103,4175.3846,4152.3077,4173.8462
4216.9231,4125.1282,4156.9231,4277.4359,4150.2564,4156.9231,4174.359,4160,4165.641,4182.5641,4158.9744,4173.3333
4235.8974,4129.2308,4175.3846,4283.0769,4182.0513,4178.4615,4188.2051,4174.359,4185.641,4203.5897,4181.5385,4193.8462
4218.4615,4124.1026,4167.6923,4266.6667,4192.3077,4190.2564,4185.1282,4161.0256,4166.6667,4189.2308,4172.3077,4185.641
4204.6154,4124.1026,4148.7179,4249.2308,4169.7436,4173.8462,4175.8974,4151.7949,4147.6923,4167.1795,4160,4162.5641
4217.9487,4123.0769,4151.7949,4246.1538,4146.1538,4160.5128,4177.9487,4155.8974,4162.0513,4175.3846,4169.2308,4168.7179
4223.5897,4122.5641,4151.7949,4245.1282,4137.4359,4160.5128,4177.4359,4154.8718,4171.2821,4183.0769,4173.3333,4184.1026
4217.4359,4124.6154,4140,4240,4155.8974,4166.6667,4174.8718,4159.4872,4167.6923,4175.8974,4171.7949,4186.1538
4211.2821,4119.4872,4134.359,4229.7436,4176.4103,4172.3077,4171.7949,4161.0256,4167.1795,4168.7179,4169.7436,4180
4221.5385,4123.5897,4142.5641,4226.6667,4174.359,4171.7949,4169.7436,4156.4103,4173.3333,4178.9744,4175.8974,4184.6154
4241.0256,4134.8718,4155.8974,4235.8974,4164.6154,4168.7179,4173.8462,4166.1538,4185.641,4195.8974,4190.7692,4200.5128
4238.9744,4131.7949,4162.5641,4238.4615,4157.4359,4163.0769,4180,4172.3077,4187.6923,4196.9231,4189.7436,4201.5385
4219.4872,4120,4151.7949,4225.1282,4163.0769,4170.7692,4178.9744,4155.8974,4174.359,4181.5385,4168.2051,4181.0256
4204.6154,4117.9487,4126.6667,4205.641,4179.4872,4191.2821,4173.3333,4147.1795,4164.1026,4160,4150.7692,4155.8974
4206.1538,4128.2051,4126.1538,4208.2051,4174.359,4181.0256,4174.359,4157.9487,4172.3077,4158.9744,4154.359,4155.3846
4210.2564,4132.8205,4148.7179,4217.4359,4150.2564,4152.3077,4177.9487,4157.9487,4177.4359,4170.7692,4160,4165.641
4202.5641,4125.1282,4144.6154,4201.5385,4155.3846,4158.9744,4175.8974,4151.7949,4164.1026,4166.1538,4150.2564,4156.4103
4203.0769,4120.5128,4131.7949,4188.7179,4178.4615,4175.8974,4175.8974,4163.5897,4167.1795,4162.5641,4149.2308,4155.3846
4221.5385,4128.2051,4147.1795,4198.9744,4170.7692,4169.2308,4185.1282,4170.2564,4188.2051,4177.9487,4169.7436,4179.4872
4217.9487,4130.2564,4149.2308,4195.3846,4159.4872,4171.2821,4186.1538,4157.4359,4176.4103,4178.4615,4169.7436,4176.4103
4201.5385,4121.0256,4127.6923,4177.9487,4169.2308,4182.0513,4178.9744,4154.8718,4154.359,4164.1026,4150.7692,4152.3077
4217.9487,4122.5641,4133.3333,4178.4615,4161.0256,4173.3333,4183.5897,4164.6154,4164.6154,4168.2051,4155.8974,4164.6154
4220.5128,4129.2308,4146.1538,4176.9231,4143.0769,4166.1538,4184.6154,4165.641,4168.2051,4172.8205,4165.641,4172.3077
4195.8974,4128.2051,4135.3846,4167.1795,4145.641,4168.7179,4181.0256,4167.6923,4160.5128,4174.359,4159.4872,4157.4359
4200,4125.1282,4131.2821,4165.1282,4160.5128,4173.3333,4185.641,4171.7949,4168.2051,4179.4872,4153.8462,4157.9487
4221.0256,4123.5897,4147.6923,4166.6667,4184.1026,4185.641,4189.2308,4168.7179,4173.8462,4183.0769,4161.5385,4165.1282
4219.4872,4124.1026,4152.3077,4169.7436,4184.6154,4186.6667,4186.1538,4167.1795,4166.6667,4181.0256,4168.2051,4165.641
4211.2821,4130.2564,4137.9487,4166.6667,4156.4103,4169.2308,4181.5385,4170.2564,4163.5897,4176.9231,4161.5385,4170.2564
4211.2821,4129.7436,4125.1282,4155.3846,4154.359,4170.2564,4184.6154,4169.7436,4162.5641,4169.7436,4152.8205,4168.2051
4200,4124.1026,4114.8718,4142.5641,4178.9744,4192.3077,4186.1538,4162.0513,4150.7692,4157.4359,4147.6923,4148.7179
4193.8462,4126.6667,4112.3077,4138.4615,4174.8718,4189.2308,4184.6154,4158.4615,4154.359,4160.5128,4149.7436,4148.2051
4206.1538,4134.359,4126.1538,4147.6923,4158.4615,4168.7179,4190.7692,4170.2564,4181.0256,4185.1282,4166.6667,4178.4615
4212.8205,4134.8718,4131.2821,4151.7949,4172.8205,4174.8718,4202.0513,4177.9487,4190.2564,4196.9231,4181.0256,4190.2564
4215.3846,4132.3077,4122.0513,4144.1026,4193.3333,4192.8205,4201.5385,4169.2308,4180.5128,4187.1795,4178.4615,4178.4615
4202.5641,4129.2308,4112.8205,4133.3333,4185.1282,4188.2051,4188.7179,4165.1282,4176.9231,4177.4359,4166.6667,4168.2051
4188.7179,4124.1026,4095.3846,4121.0256,4163.5897,4179.4872,4179.4872,4167.6923,4177.4359,4170.7692,4157.4359,4156.9231
4203.5897,4132.3077,4094.359,4116.9231,4171.2821,4186.6667,4185.641,4167.6923,4179.4872,4168.7179,4162.5641,4157.4359
4218.4615,4143.5897,4108.7179,4124.6154,4170.2564,4182.0513,4190.2564,4168.7179,4186.6667,4174.8718,4171.7949,4167.6923
4208.7179,4137.4359,4095.8974,4118.9744,4136.9231,4166.1538,4181.5385,4169.2308,4186.6667,4169.2308,4164.1026,4153.3333
4209.2308,4133.3333,4086.6667,4104.6154,4158.4615,4178.9744,4185.1282,4171.7949,4190.7692,4164.6154,4162.5641,4141.5385
4228.7179,4136.9231,4110.7692,4109.2308,4219.4872,4207.6923,4203.5897,4174.8718,4200.5128,4176.4103,4179.4872,4162.0513
4241.5385,4138.9744,4117.4359,4118.4615,4214.8718,4205.641,4206.1538,4172.8205,4198.9744,4183.0769,4184.6154,4175.8974
4248.2051,4140.5128,4107.1795,4117.9487,4178.9744,4184.1026,4202.5641,4175.3846,4204.1026,4189.2308,4188.2051,4177.4359
4242.0513,4133.8462,4107.6923,4108.7179,4184.6154,4187.1795,4202.5641,4171.7949,4203.0769,4187.6923,4187.1795,4176.9231
4226.6667,4124.6154,4105.1282,4095.3846,4174.8718,4182.5641,4192.8205,4156.4103,4182.0513,4169.2308,4164.1026,4158.4615
4226.6667,4128.2051,4102.0513,4089.7436,4140.5128,4165.641,4183.5897,4157.9487,4180.5128,4163.5897,4149.7436,4150.7692
4232.8205,4131.2821,4104.6154,4090.2564,4157.9487,4184.1026,4186.6667,4169.2308,4189.2308,4169.2308,4155.3846,4156.4103
4231.2821,4131.2821,4108.2051,4091.7949,4192.3077,4202.0513,4192.3077,4168.7179,4183.5897,4168.7179,4165.1282,4156.9231
4229.2308,4133.8462,4118.9744,4093.8462,4185.641,4185.641,4195.8974,4168.2051,4189.2308,4173.8462,4173.8462,4161.0256
4240.5128,4136.4103,4128.7179,4095.8974,4176.9231,4177.9487,4201.0256,4174.8718,4201.5385,4189.2308,4177.9487,4171.2821
4249.2308,4136.4103,4118.9744,4089.7436,4191.2821,4191.7949,4202.0513,4173.8462,4193.3333,4189.2308,4173.8462,4167.6923
4235.8974,4131.2821,4105.641,4076.9231,4182.5641,4188.7179,4192.3077,4164.1026,4180.5128,4172.3077,4164.1026,4148.7179
4225.1282,4129.7436,4108.7179,4074.359,4164.1026,4181.5385,4188.7179,4163.5897,4183.0769,4165.1282,4156.4103,4140
4230.2564,4134.359,4112.8205,4073.8462,4180,4188.7179,4196.9231,4168.7179,4185.1282,4176.4103,4162.5641,4152.8205
4235.3846,4134.359,4111.7949,4064.1026,4191.7949,4190.2564,4202.0513,4171.7949,4185.641,4186.1538,4181.0256,4171.7949
4237.4359,4131.7949,4111.2821,4060.5128,4175.3846,4182.0513,4195.8974,4172.3077,4190.2564,4182.0513,4186.1538,4170.7692
4222.0513,4126.6667,4100.5128,4055.8974,4165.1282,4180.5128,4185.641,4163.5897,4178.9744,4162.0513,4161.5385,4145.641
4200.5128,4122.5641,4090.2564,4041.5385,4167.6923,4189.7436,4186.1538,4162.0513,4169.2308,4150.2564,4149.7436,4136.4103
4218.9744,4127.6923,4105.641,4045.641,4166.6667,4186.6667,4195.8974,4180.5128,4186.1538,4172.8205,4178.9744,4161.5385
4240,4131.2821,4114.8718,4054.359,4171.2821,4176.9231,4194.359,4180,4188.7179,4185.1282,4185.641,4170.7692
4226.1538,4129.7436,4105.641,4043.0769,4181.0256,4177.4359,4184.1026,4156.4103,4169.7436,4170.2564,4156.9231,4153.3333
4216.9231,4126.6667,4108.7179,4036.4103,4185.641,4182.0513,4182.5641,4149.2308,4162.5641,4163.5897,4150.7692,4149.7436
4218.9744,4124.1026,4107.1795,4034.8718,4184.1026,4186.6667,4179.4872,4151.7949,4157.9487,4160,4153.3333,4142.5641
4221.0256,4125.1282,4099.4872,4032.3077,4160,4176.9231,4171.2821,4152.3077,4155.8974,4156.4103,4146.1538,4136.9231
4218.9744,4128.7179,4105.641,4034.8718,4144.1026,4162.5641,4170.7692,4157.4359,4167.6923,4166.1538,4151.2821,4149.7436
4203.0769,4127.6923,4107.1795,4031.2821,4170.2564,4174.8718,4174.359,4156.9231,4170.7692,4166.6667,4160,4150.2564
4215.8974,4130.7692,4112.3077,4032.3077,4202.5641,4194.359,4181.5385,4159.4872,4174.8718,4167.1795,4170.7692,4149.7436
4254.359,4139.4872,4133.3333,4046.6667,4199.4872,4181.5385,4191.2821,4176.9231,4191.7949,4188.2051,4186.6667,4171.7949
4244.1026,4132.3077,4129.7436,4041.0256,4179.4872,4169.7436,4182.0513,4175.3846,4187.6923,4186.1538,4182.5641,4173.3333
4206.6667,4121.0256,4104.1026,4016.9231,4174.8718,4184.1026,4172.3077,4161.0256,4168.2051,4162.0513,4166.6667,4150.7692
4213.3333,4126.6667,4108.2051,4015.8974,4189.7436,4191.2821,4184.1026,4168.7179,4167.6923,4163.0769,4163.5897,4147.6923
4230.2564,4132.3077,4128.7179,4027.1795,4193.8462,4180,4194.359,4177.4359,4174.359,4176.4103,4166.1538,4158.4615
4208.7179,4126.6667,4124.6154,4018.9744,4163.0769,4168.7179,4183.5897,4162.0513,4165.1282,4170.2564,4160,4154.359
4194.359,4123.0769,4111.7949,4002.0513,4146.1538,4164.1026,4168.2051,4154.8718,4158.4615,4159.4872,4151.7949,4146.1538
4213.8462,4128.2051,4114.8718,4000,4176.4103,4169.2308,4167.1795,4163.5897,4167.6923,4164.6154,4157.4359,4149.2308
4226.1538,4130.7692,4123.0769,4008.2051,4195.3846,4174.359,4169.7436,4162.0513,4171.2821,4175.3846,4167.6923,4156.9231
4221.5385,4129.7436,4123.5897,4010.7692,4184.1026,4175.8974,4168.7179,4152.3077,4168.2051,4174.8718,4166.1538,4160.5128
4225.1282,4131.7949,4122.0513,4007.6923,4187.1795,4177.9487,4169.2308,4153.3333,4174.359,4169.7436,4164.1026,4162.5641
4226.1538,4128.7179,4125.641,4003.0769,4188.7179,4173.8462,4173.8462,4167.1795,4182.5641,4174.359,4173.8462,4166.6667
4206.1538,4118.4615,4119.4872,3990.7692,4166.6667,4165.641,4170.2564,4167.6923,4171.7949,4165.1282,4169.2308,4156.9231
4192.3077,4121.5385,4105.1282,3981.5385,4172.8205,4170.7692,4165.1282,4154.359,4152.8205,4144.6154,4150.7692,4136.9231
4200.5128,4130.7692,4111.7949,3989.2308,4191.2821,4173.3333,4170.7692,4155.8974,4151.2821,4150.7692,4151.7949,4142.5641
4207.1795,4128.2051,4125.1282,3994.359,4159.4872,4154.359,4169.2308,4168.2051,4158.9744,4162.5641,4158.9744,4158.4615
4189.2308,4115.8974,4108.7179,3974.8718,4134.8718,4153.8462,4153.8462,4158.4615,4148.7179,4142.0513,4139.4872,4138.9744
4180,4116.9231,4101.0256,3964.6154,4167.6923,4175.8974,4154.359,4145.1282,4140,4133.8462,4129.2308,4125.641
4207.1795,4133.3333,4126.6667,3986.1538,4200.5128,4176.9231,4173.3333,4161.0256,4157.9487,4163.5897,4158.4615,4153.3333
4225.1282,4136.4103,4138.9744,3995.3846,4194.8718,4167.6923,4178.4615,4175.8974,4175.8974,4180,4181.0256,4170.7692
4207.1795,4126.1538,4124.1026,3979.4872,4189.7436,4175.3846,4172.8205,4171.2821,4175.3846,4169.7436,4173.3333,4160.5128
4180.5128,4121.0256,4110.7692,3964.6154,4185.1282,4172.3077,4166.6667,4159.4872,4163.0769,4155.8974,4159.4872,4145.641
4166.6667,4121.5385,4113.3333,3960.5128,4157.4359,4149.7436,4155.3846,4149.7436,4154.8718,4150.7692,4153.3333,4137.9487
4164.1026,4121.5385,4117.9487,3955.3846,4145.641,4144.6154,4151.2821,4151.7949,4154.8718,4150.7692,4150.2564,4139.4872
4170.2564,4118.4615,4109.7436,3955.3846,4163.5897,4157.9487,4154.8718,4152.8205,4147.6923,4141.5385,4142.0513,4129.7436
4178.9744,4122.5641,4108.2051,3954.359,4167.1795,4153.3333,4154.359,4151.2821,4137.9487,4134.359,4134.8718,4118.9744
4179.4872,4130.2564,4119.4872,3945.1282,4147.6923,4140,4153.8462,4151.2821,4138.4615,4137.9487,4136.4103,4129.7436
4176.9231,4130.7692,4121.0256,3945.641,4148.7179,4147.1795,4152.8205,4149.7436,4140,4139.4872,4139.4872,4140
4184.1026,4131.7949,4122.0513,3956.9231,4173.3333,4161.0256,4154.8718,4152.3077,4139.4872,4145.641,4140.5128,4138.4615
4187.1795,4131.2821,4128.2051,3952.8205,4176.9231,4163.0769,4160.5128,4155.3846,4144.6154,4151.7949,4142.0513,4138.4615
4174.359,4126.6667,4123.0769,3937.9487,4156.9231,4156.9231,4163.5897,4154.8718,4144.6154,4143.0769,4138.4615,4134.8718
4173.3333,4130.7692,4125.641,3936.9231,4154.8718,4151.7949,4165.641,4153.3333,4138.4615,4142.5641,4135.3846,4134.8718
4190.2564,4136.9231,4139.4872,3942.0513,4183.5897,4156.4103,4172.3077,4153.3333,4144.6154,4156.4103,4140.5128,4145.1282
4187.6923,4130.2564,4137.4359,3937.4359,4188.7179,4167.1795,4171.2821,4154.8718,4152.8205,4154.359,4143.0769,4140.5128
4164.6154,4120,4125.1282,3927.6923,4128.7179,4147.6923,4152.3077,4150.7692,4144.1026,4134.8718,4133.8462,4122.5641
4154.359,4120.5128,4124.6154,3923.0769,4095.3846,4121.0256,4137.4359,4138.4615,4129.2308,4124.1026,4127.1795,4118.4615
4160,4127.1795,4126.6667,3924.1026,4156.9231,4148.7179,4145.1282,4137.4359,4126.1538,4127.1795,4129.7436,4118.4615
4176.9231,4133.3333,4127.6923,3925.1282,4205.1282,4181.0256,4156.4103,4155.3846,4142.0513,4142.0513,4140.5128,4123.5897
4203.0769,4137.4359,4144.1026,3930.2564,4174.359,4152.8205,4156.9231,4163.5897,4162.5641,4163.5897,4163.5897,4149.7436
4200.5128,4133.8462,4153.8462,3935.8974,4157.9487,4134.359,4158.9744,4155.8974,4163.0769,4167.1795,4171.7949,4162.0513
4165.641,4124.1026,4135.8974,3924.1026,4174.8718,4163.0769,4159.4872,4149.7436,4141.0256,4142.5641,4144.1026,4132.8205
4152.8205,4124.6154,4125.641,3910.2564,4153.8462,4164.1026,4152.3077,4151.7949,4126.6667,4128.7179,4126.1538,4116.9231
4173.8462,4132.3077,4145.641,3916.4103,4124.6154,4130.2564,4152.3077,4157.9487,4133.3333,4150.2564,4146.6667,4141.0256
4175.8974,4130.2564,4150.7692,3920,4133.8462,4130.2564,4157.4359,4155.8974,4131.7949,4153.8462,4149.2308,4143.5897
4155.8974,4125.1282,4131.7949,3907.6923,4145.1282,4156.4103,4153.8462,4144.1026,4111.2821,4122.0513,4118.4615,4107.1795
4151.7949,4125.641,4133.3333,3903.5897,4139.4872,4155.3846,4151.2821,4144.1026,4109.2308,4119.4872,4119.4872,4103.5897
4169.2308,4133.8462,4155.3846,3913.3333,4140.5128,4137.4359,4158.9744,4156.4103,4132.3077,4147.6923,4149.2308,4135.3846
4176.4103,4133.8462,4152.3077,3916.4103,4151.2821,4136.9231,4156.4103,4157.4359,4137.9487,4150.2564,4150.7692,4134.359
4156.4103,4122.0513,4129.2308,3908.2051,4155.8974,4146.6667,4142.5641,4145.641,4117.9487,4130.7692,4127.1795,4109.2308
4145.1282,4123.5897,4129.7436,3906.6667,4153.8462,4144.1026,4139.4872,4139.4872,4114.359,4130.7692,4128.7179,4114.359
4164.1026,4133.3333,4146.6667,3913.8462,4142.5641,4132.8205,4146.6667,4146.1538,4127.6923,4143.0769,4152.8205,4133.8462
4166.6667,4131.2821,4142.0513,3911.2821,4118.9744,4126.1538,4141.0256,4152.8205,4127.6923,4140,4150.7692,4124.6154
4153.8462,4123.0769,4136.9231,3905.1282,4117.9487,4129.7436,4132.8205,4150.2564,4124.1026,4136.9231,4135.3846,4120.5128
4157.9487,4124.6154,4143.5897,3907.6923,4153.3333,4148.7179,4144.1026,4148.7179,4123.0769,4145.1282,4141.5385,4134.359
4167.1795,4128.7179,4144.6154,3904.6154,4158.4615,4153.8462,4156.4103,4154.8718,4123.0769,4147.1795,4152.3077,4138.4615
4158.9744,4126.1538,4145.1282,3895.8974,4116.4103,4132.8205,4147.1795,4150.7692,4125.1282,4139.4872,4151.2821,4136.4103
4151.7949,4123.5897,4148.2051,3894.8718,4105.1282,4123.5897,4135.3846,4140,4119.4872,4134.8718,4145.1282,4131.2821
4164.6154,4123.5897,4150.7692,3900.5128,4146.1538,4135.8974,4137.9487,4145.641,4112.8205,4141.5385,4146.1538,4131.2821
4167.1795,4126.1538,4147.6923,3901.0256,4162.5641,4144.6154,4144.1026,4150.2564,4109.2308,4139.4872,4140.5128,4132.3077
4155.8974,4127.6923,4140,3894.359,4133.3333,4137.9487,4137.4359,4142.0513,4105.1282,4127.1795,4129.2308,4124.1026
4156.9231,4127.1795,4141.5385,3893.3333,4115.3846,4123.5897,4129.2308,4142.0513,4111.2821,4132.3077,4134.8718,4123.0769
4155.3846,4127.6923,4144.1026,3895.8974,4126.6667,4117.4359,4126.6667,4141.0256,4108.7179,4135.3846,4134.359,4121.0256
4138.4615,4120.5128,4130.2564,3886.6667,4139.4872,4132.3077,4127.6923,4125.1282,4087.6923,4114.8718,4108.7179,4101.0256
4138.9744,4118.4615,4125.1282,3873.8462,4142.0513,4145.1282,4133.8462,4127.1795,4093.8462,4110.2564,4106.1538,4098.4615
4160.5128,4131.7949,4147.6923,3886.1538,4136.4103,4132.3077,4142.0513,4150.2564,4125.641,4138.4615,4138.4615,4128.7179
4160,4132.3077,4148.7179,3897.9487,4134.359,4128.2051,4141.0256,4150.7692,4122.0513,4145.641,4139.4872,4134.8718
4146.1538,4120,4131.7949,3889.7436,4140,4143.5897,4135.8974,4138.4615,4100.5128,4124.1026,4115.8974,4114.8718
4154.359,4120.5128,4143.5897,3886.6667,4133.3333,4139.4872,4133.8462,4140.5128,4112.8205,4128.2051,4123.5897,4120.5128
4159.4872,4124.6154,4154.359,3888.2051,4122.0513,4126.1538,4128.2051,4139.4872,4123.0769,4138.9744,4132.3077,4130.2564
4140.5128,4122.0513,4138.9744,3880,4117.4359,4127.1795,4124.1026,4131.7949,4108.2051,4128.2051,4115.3846,4115.3846
4134.359,4121.5385,4132.8205,3874.359,4118.4615,4127.1795,4123.0769,4132.3077,4101.5385,4123.0769,4110.2564,4107.1795
4158.4615,4129.2308,4146.6667,3880,4138.4615,4126.6667,4125.1282,4138.9744,4113.3333,4135.3846,4128.2051,4121.5385
4168.7179,4132.3077,4158.4615,3888.2051,4154.8718,4133.8462,4130.7692,4142.5641,4124.6154,4143.5897,4142.0513,4132.8205
4142.5641,4121.0256,4152.3077,3878.9744,4138.9744,4137.4359,4130.2564,4135.8974,4120.5128,4135.8974,4131.7949,4122.0513
4132.3077,4120,4142.0513,3865.1282,4135.8974,4138.9744,4131.2821,4136.4103,4124.1026,4132.8205,4130.7692,4117.4359
4153.8462,4132.3077,4150.2564,3868.2051,4142.5641,4138.9744,4138.9744,4149.2308,4139.4872,4143.5897,4154.8718,4137.4359
4156.9231,4132.3077,4156.4103,3873.3333,4117.9487,4127.1795,4135.8974,4150.7692,4134.8718,4142.0513,4158.4615,4146.6667
4137.9487,4121.5385,4139.4872,3863.5897,4114.8718,4126.6667,4121.0256,4138.9744,4124.1026,4124.6154,4136.4103,4128.7179
4133.3333,4123.0769,4136.9231,3855.8974,4136.9231,4140,4118.9744,4137.4359,4133.3333,4124.1026,4129.2308,4115.8974
4143.5897,4130.7692,4154.359,3860.5128,4129.7436,4134.359,4132.8205,4148.2051,4140.5128,4140.5128,4142.0513,4124.1026
4137.4359,4127.1795,4146.6667,3861.0256,4115.8974,4123.0769,4133.8462,4145.641,4127.6923,4127.6923,4137.4359,4118.9744
4121.5385,4125.1282,4127.6923,3856.4103,4107.6923,4120,4121.5385,4129.7436,4116.4103,4102.0513,4117.9487,4097.9487
4127.6923,4129.7436,4137.9487,3856.4103,4100.5128,4116.9231,4120.5128,4127.6923,4120,4108.7179,4123.5897,4106.6667
4146.1538,4130.2564,4155.3846,3860.5128,4127.6923,4124.1026,4132.8205,4141.0256,4130.2564,4129.2308,4143.0769,4133.3333
4147.6923,4127.1795,4158.4615,3866.1538,4149.2308,4131.2821,4134.8718,4146.1538,4132.8205,4128.2051,4136.9231,4132.8205
4134.8718,4122.5641,4149.7436,3861.5385,4115.8974,4123.5897,4124.6154,4134.8718,4121.0256,4113.3333,4117.9487,4113.8462
4132.8205,4121.0256,4142.5641,3850.7692,4108.2051,4124.6154,4129.2308,4134.8718,4121.0256,4110.7692,4124.1026,4113.8462
4144.6154,4124.1026,4151.7949,3849.7436,4147.1795,4144.1026,4144.6154,4148.7179,4140.5128,4126.6667,4141.5385,4128.7179
4141.5385,4121.0256,4156.9231,3856.4103,4150.2564,4146.6667,4142.0513,4146.6667,4143.5897,4133.8462,4139.4872,4133.3333
4121.5385,4112.8205,4140.5128,3851.7949,4115.8974,4124.6154,4124.6154,4127.1795,4122.5641,4120,4123.0769,4118.4615
4123.0769,4112.3077,4130.2564,3841.5385,4095.3846,4106.1538,4116.9231,4126.1538,4123.5897,4114.359,4120.5128,4107.6923
4140,4121.5385,4145.641,3844.6154,4106.1538,4112.8205,4123.0769,4140,4139.4872,4124.1026,4129.7436,4115.3846
4137.4359,4127.6923,4157.9487,3853.3333,4132.3077,4131.2821,4125.641,4138.4615,4130.2564,4124.6154,4127.1795,4122.5641
4128.7179,4123.5897,4154.8718,3852.3077,4141.5385,4131.7949,4122.5641,4134.359,4126.1538,4124.6154,4128.2051,4118.4615
4133.3333,4127.6923,4145.641,3834.359,4102.5641,4108.2051,4118.4615,4141.5385,4146.6667,4129.2308,4130.2564,4117.9487
4127.1795,4129.7436,4145.641,3832.3077,4098.9744,4111.7949,4111.7949,4122.0513,4128.2051,4121.0256,4120.5128,4116.9231
4118.4615,4123.0769,4142.0513,3822.5641,4114.359,4128.2051,4117.4359,4125.641,4126.1538,4115.3846,4125.1282,4110.7692
4130.2564,4128.2051,4156.9231,3828.7179,4132.8205,4132.8205,4133.3333,4151.2821,4143.0769,4134.8718,4146.1538,4124.6154
4133.3333,4134.8718,4163.0769,3837.4359,4130.7692,4127.6923,4134.359,4153.8462,4140.5128,4142.5641,4145.1282,4128.7179
4119.4872,4129.7436,4151.2821,3832.8205,4126.6667,4123.0769,4121.0256,4136.4103,4125.1282,4126.1538,4127.6923,4109.7436
4116.9231,4127.1795,4146.6667,3828.2051,4136.9231,4124.1026,4113.8462,4122.0513,4118.9744,4115.8974,4118.4615,4100
4123.5897,4124.6154,4151.7949,3831.7949,4128.2051,4123.0769,4110.7692,4115.3846,4115.3846,4122.0513,4110.2564,4102.0513
4132.8205,4121.0256,4158.4615,3838.4615,4106.6667,4111.2821,4109.7436,4124.1026,4122.0513,4132.3077,4116.4103,4106.6667
4126.1538,4121.0256,4152.3077,3834.8718,4108.2051,4111.7949,4108.7179,4131.2821,4132.8205,4126.1538,4123.0769,4105.641
4097.4359,4120.5128,4138.4615,3823.5897,4090.7692,4110.7692,4101.0256,4116.9231,4123.5897,4107.6923,4107.6923,4094.359
4110.2564,4127.6923,4149.7436,3834.359,4070.7692,4095.8974,4102.5641,4118.4615,4127.6923,4114.359,4116.4103,4108.2051
4149.7436,4131.7949,4163.5897,3848.2051,4119.4872,4112.8205,4119.4872,4134.8718,4148.2051,4133.8462,4139.4872,4129.2308
4134.8718,4125.641,4144.6154,3835.3846,4173.3333,4145.641,4122.0513,4129.2308,4140.5128,4123.5897,4121.5385,4108.7179
4115.3846,4130.2564,4140.5128,3838.9744,4151.2821,4138.4615,4116.9231,4130.2564,4133.8462,4117.9487,4111.7949,4101.0256
4141.5385,4136.4103,4159.4872,3855.8974,4113.3333,4117.9487,4122.0513,4143.0769,4148.7179,4136.4103,4134.359,4126.1538
4134.8718,4128.7179,4148.7179,3841.5385,4113.8462,4122.0513,4120.5128,4127.6923,4132.3077,4122.5641,4116.4103,4107.1795
4102.0513,4124.6154,4132.8205,3833.3333,4112.8205,4123.5897,4112.8205,4117.4359,4117.9487,4103.0769,4093.3333,4080.5128
4121.0256,4130.7692,4153.3333,3831.2821,4116.4103,4120.5128,4121.5385,4142.5641,4147.6923,4127.6923,4126.1538,4115.8974
4147.6923,4135.8974,4164.1026,3772.8205,4123.5897,4122.0513,4129.7436,4147.1795,4160,4146.6667,4149.7436,4140.5128
4129.2308,4128.7179,4145.641,3687.1795,4121.0256,4120.5128,4115.8974,4118.4615,4136.4103,4125.1282,4126.6667,4111.2821
4110.2564,4121.0256,4142.5641,3643.5897,4129.2308,4122.5641,4110.7692,4119.4872,4130.2564,4115.8974,4113.3333,4099.4872
4123.5897,4124.6154,4158.9744,3621.5385,4137.9487,4127.1795,4122.5641,4143.0769,4140.5128,4136.9231,4127.6923,4122.0513
4133.3333,4128.7179,4160.5128,3588.2051,4123.0769,4122.5641,4122.0513,4140,4137.9487,4142.5641,4130.2564,4127.6923
4123.5897,4127.1795,4151.7949,3556.9231,4110.2564,4119.4872,4110.7692,4123.5897,4135.8974,4129.7436,4121.0256,4116.4103
4128.7179,4125.641,4155.3846,3542.5641,4118.9744,4121.5385,4108.7179,4122.5641,4136.4103,4133.8462,4122.5641,4121.5385
4138.4615,4122.0513,4161.0256,3530.2564,4132.8205,4123.0769,4110.7692,4132.3077,4129.2308,4142.0513,4124.6154,4125.1282
4123.0769,4117.9487,4155.3846,3508.2051,4135.8974,4121.5385,4107.1795,4132.8205,4125.641,4131.7949,4120,4110.7692
4118.9744,4124.1026,4159.4872,3489.2308,4122.0513,4110.7692,4108.7179,4126.1538,4130.2564,4127.6923,4124.1026,4112.8205
4136.4103,4134.359,4168.7179,3485.641,4126.1538,4111.2821,4113.8462,4126.6667,4125.641,4136.4103,4128.2051,4126.1538
4123.5897,4126.1538,4159.4872,3475.3846,4127.1795,4120.5128,4105.1282,4125.641,4107.1795,4121.0256,4112.3077,4106.6667
4098.9744,4115.3846,4143.0769,3454.359,4094.8718,4109.7436,4095.8974,4118.9744,4100,4100,4097.4359,4079.4872
4117.9487,4125.641,4150.2564,3447.1795,4105.1282,4102.0513,4112.3077,4129.7436,4119.4872,4122.5641,4114.8718,4098.9744
4134.8718,4128.7179,4162.0513,3445.641,4149.2308,4117.9487,4127.1795,4142.0513,4129.2308,4144.1026,4131.7949,4121.5385
4112.3077,4116.4103,4147.1795,3428.7179,4133.8462,4126.1538,4112.3077,4126.1538,4106.6667,4116.4103,4110.7692,4093.3333
4105.1282,4118.4615,4134.8718,3417.4359,4103.5897,4116.4103,4098.9744,4116.9231,4102.0513,4097.4359,4094.359,4074.359
4128.2051,4135.3846,4154.359,3430.7692,4126.6667,4112.8205,4114.359,4134.359,4121.5385,4123.5897,4114.8718,4105.1282
4133.8462,4137.4359,4175.8974,3437.4359,4144.6154,4114.8718,4128.7179,4140,4120,4142.0513,4131.2821,4128.2051
4120,4122.0513,4164.1026,3422.0513,4121.0256,4114.8718,4116.9231,4124.6154,4113.3333,4128.2051,4118.4615,4110.7692
4118.4615,4119.4872,4152.3077,3414.8718,4097.4359,4112.8205,4104.1026,4121.5385,4116.4103,4114.8718,4105.1282,4093.3333
4123.0769,4123.0769,4157.9487,3418.9744,4105.641,4118.9744,4110.7692,4129.7436,4108.7179,4115.8974,4104.6154,4094.8718
4122.0513,4122.5641,4157.9487,3415.8974,4122.0513,4126.6667,4122.5641,4131.2821,4107.6923,4125.1282,4113.3333,4100.5128
4122.0513,4127.1795,4159.4872,3415.8974,4129.7436,4123.5897,4124.6154,4131.2821,4122.0513,4132.8205,4121.5385,4109.2308
4121.5385,4130.7692,4169.2308,3422.0513,4144.1026,4129.2308,4121.5385,4136.9231,4124.6154,4130.2564,4120.5128,4112.8205
4129.2308,4132.8205,4173.8462,3423.0769,4150.7692,4133.3333,4121.5385,4135.8974,4120,4125.641,4119.4872,4102.5641
4133.8462,4128.2051,4162.0513,3416.4103,4132.8205,4124.1026,4122.0513,4128.7179,4122.0513,4123.5897,4125.1282,4091.2821
4126.6667,4121.5385,4152.8205,3409.7436,4121.0256,4122.5641,4118.4615,4129.7436,4119.4872,4124.1026,4122.5641,4092.8205
4135.3846,4128.2051,4164.1026,3418.4615,4114.8718,4120,4113.8462,4132.8205,4120,4131.2821,4120.5128,4108.7179
4143.0769,4129.2308,4173.3333,3431.7949,4104.1026,4106.6667,4110.2564,4128.2051,4127.6923,4134.359,4131.7949,4119.4872
4109.7436,4113.8462,4155.8974,3419.4872,4113.8462,4112.8205,4106.6667,4123.0769,4119.4872,4112.8205,4116.9231,4098.9744
4096.4103,4113.8462,4147.6923,3407.1795,4133.3333,4129.2308,4110.2564,4127.6923,4116.4103,4103.5897,4097.4359,4088.2051
4141.0256,4132.3077,4172.3077,3428.7179,4121.0256,4122.5641,4124.1026,4131.7949,4137.9487,4133.3333,4124.1026,4115.3846
4150.2564,4132.8205,4173.3333,3440,4101.0256,4114.8718,4123.0769,4125.1282,4137.9487,4140.5128,4135.8974,4117.4359
4115.3846,4118.4615,4153.3333,3425.641,4113.3333,4120.5128,4107.1795,4123.5897,4115.8974,4117.4359,4108.2051,4091.7949
4118.4615,4121.0256,4161.0256,3426.6667,4133.3333,4122.5641,4105.641,4135.8974,4120,4125.641,4111.2821,4101.0256
4140.5128,4127.6923,4168.7179,3439.4872,4124.6154,4117.4359,4111.2821,4133.8462,4131.7949,4141.5385,4127.1795,4112.8205
4125.641,4124.6154,4152.8205,3434.8718,4122.5641,4122.0513,4108.2051,4115.3846,4118.4615,4123.5897,4111.7949,4090.2564
4115.3846,4126.6667,4159.4872,3438.9744,4137.4359,4129.2308,4115.3846,4129.2308,4125.641,4128.7179,4116.4103,4100.5128
4133.8462,4127.6923,4178.9744,3453.8462,4110.2564,4116.4103,4120.5128,4144.6154,4143.0769,4152.8205,4134.8718,4130.7692
4123.0769,4120.5128,4158.9744,3450.2564,4083.0769,4104.6154,4105.1282,4120,4116.4103,4124.6154,4105.1282,4103.5897
4102.5641,4122.0513,4141.5385,3447.1795,4122.0513,4119.4872,4104.1026,4111.2821,4103.5897,4100.5128,4087.1795,4078.4615
4122.0513,4130.2564,4164.1026,3461.5385,4146.6667,4130.2564,4122.5641,4136.9231,4138.9744,4133.8462,4125.641,4107.6923
4133.8462,4127.1795,4174.8718,3467.1795,4098.4615,4110.7692,4120,4137.9487,4141.0256,4147.1795,4137.4359,4121.0256
4112.3077,4114.8718,4154.359,3457.4359,4090.7692,4111.7949,4107.6923,4111.7949,4105.1282,4113.8462,4095.3846,4089.7436
4113.8462,4120,4151.2821,3462.5641,4149.2308,4139.4872,4113.8462,4117.9487,4109.7436,4108.2051,4093.8462,4086.6667
4144.6154,4135.3846,4172.3077,3480,4144.1026,4127.1795,4117.4359,4144.1026,4143.5897,4140,4138.9744,4122.5641
4148.2051,4132.3077,4174.8718,3484.6154,4095.8974,4097.9487,4108.2051,4141.5385,4146.6667,4148.2051,4141.0256,4131.7949
4131.2821,4123.0769,4161.0256,3479.4872,4104.1026,4109.2308,4105.641,4127.6923,4125.641,4130.2564,4111.2821,4114.359
4117.9487,4121.0256,4153.8462,3477.4359,4130.2564,4128.2051,4106.1538,4125.1282,4117.9487,4123.5897,4107.6923,4105.1282
4104.1026,4122.5641,4150.7692,3481.5385,4118.4615,4119.4872,4103.0769,4122.0513,4117.4359,4120,4107.6923,4098.9744
4110.7692,4126.1538,4152.8205,3491.2821,4113.3333,4117.9487,4110.7692,4122.5641,4117.4359,4116.9231,4103.0769,4100.5128
4142.0513,4129.7436,4165.1282,3504.1026,4135.8974,4124.1026,4123.5897,4137.4359,4129.7436,4133.8462,4125.641,4124.6154
4144.1026,4127.6923,4165.641,3512.8205,4141.0256,4123.5897,4122.5641,4138.9744,4126.6667,4140.5128,4131.2821,4128.2051
4105.1282,4116.9231,4141.0256,3509.2308,4115.8974,4126.1538,4106.6667,4112.3077,4100.5128,4110.7692,4088.2051,4092.3077
4098.4615,4116.4103,4134.359,3509.7436,4090.7692,4116.4103,4098.9744,4109.7436,4104.1026,4101.5385,4082.0513,4087.6923
4134.8718,4130.2564,4160.5128,3527.6923,4103.0769,4104.1026,4111.2821,4140.5128,4135.8974,4136.9231,4126.6667,4126.1538
4148.2051,4133.8462,4176.9231,3545.641,4132.3077,4115.8974,4122.0513,4151.7949,4147.6923,4158.9744,4146.1538,4144.6154
4137.9487,4126.6667,4174.359,3549.2308,4143.0769,4130.7692,4124.6154,4142.0513,4151.2821,4158.9744,4143.5897,4143.5897
4134.8718,4121.0256,4160.5128,3544.1026,4139.4872,4127.6923,4122.0513,4136.4103,4147.1795,4149.7436,4136.4103,4135.3846
4123.5897,4120,4143.0769,3538.4615,4121.5385,4117.4359,4111.7949,4126.1538,4122.0513,4127.1795,4109.7436,4114.359
4105.1282,4123.5897,4144.1026,3539.4872,4101.5385,4111.2821,4103.0769,4118.9744,4116.4103,4117.9487,4097.4359,4100.5128
4111.2821,4123.5897,4151.2821,3549.2308,4116.9231,4118.4615,4110.7692,4126.1538,4127.6923,4126.1538,4105.641,4104.1026
4121.5385,4118.9744,4144.1026,3554.359,4142.5641,4132.8205,4123.0769,4131.2821,4118.4615,4121.0256,4104.1026,4108.2051
4116.9231,4123.0769,4149.2308,3558.4615,4131.2821,4130.7692,4124.1026,4136.9231,4120.5128,4121.0256,4113.3333,4116.4103
4125.641,4132.3077,4166.6667,3572.3077,4113.8462,4118.4615,4120.5128,4138.4615,4135.8974,4136.4103,4127.1795,4127.6923
4138.9744,4127.6923,4163.0769,3580,4119.4872,4112.3077,4119.4872,4130.2564,4128.2051,4135.3846,4116.4103,4127.1795
4127.6923,4116.4103,4145.1282,3573.8462,4120,4111.7949,4111.7949,4126.1538,4116.4103,4122.0513,4102.5641,4115.8974
4113.8462,4121.0256,4138.4615,3571.7949,4127.1795,4124.6154,4106.1538,4128.7179,4118.4615,4119.4872,4100.5128,4103.5897
4123.5897,4129.2308,4146.6667,3584.1026,4128.7179,4128.2051,4116.9231,4127.6923,4124.6154,4125.1282,4104.6154,4110.7692
4125.641,4124.1026,4152.8205,3593.3333,4094.359,4102.5641,4121.0256,4124.1026,4126.1538,4129.2308,4110.7692,4124.1026
4110.7692,4117.4359,4142.5641,3592.8205,4094.8718,4100.5128,4114.8718,4117.4359,4117.4359,4118.9744,4100,4107.6923
4113.3333,4118.9744,4137.9487,3594.8718,4140.5128,4129.7436,4117.4359,4119.4872,4114.359,4109.7436,4091.2821,4093.8462
4129.2308,4126.6667,4154.359,3610.2564,4137.9487,4127.6923,4126.6667,4135.8974,4128.2051,4126.1538,4111.2821,4115.3846
4123.5897,4123.5897,4158.9744,3614.8718,4091.7949,4103.5897,4118.9744,4137.4359,4130.2564,4138.4615,4120.5128,4126.6667
4115.8974,4117.9487,4146.1538,3608.2051,4094.8718,4105.1282,4107.1795,4124.1026,4122.0513,4128.2051,4111.2821,4121.5385
4125.641,4125.641,4141.0256,3615.3846,4130.7692,4113.8462,4106.1538,4116.4103,4118.4615,4116.9231,4105.641,4119.4872
4116.9231,4124.6154,4134.359,3617.9487,4109.2308,4105.1282,4098.4615,4109.7436,4102.5641,4103.5897,4087.1795,4105.1282
4095.8974,4122.0513,4125.1282,4054.8718,4137.9487,4130.2564,4123.5897,4131.2821,4136.4103,4112.8205,4107.6923,4068.2051
4087.1795,4121.5385,4120.5128,4049.2308,4134.8718,4138.4615,4123.5897,4120.5128,4126.6667,4097.4359,4120,4057.9487
4095.8974,4120.5128,4118.9744,4057.4359,4137.4359,4128.7179,4121.5385,4123.0769,4199.4872,4072.3077,4171.2821,4057.4359
4113.3333,4125.1282,4131.2821,4066.6667,4144.1026,4118.9744,4124.1026,4136.4103,4190.2564,4120.5128,4135.8974,4097.9487
4105.641,4124.1026,4128.2051,4061.0256,4143.0769,4130.7692,4125.641,4118.4615,4121.0256,4144.1026,4089.7436,4096.9231
4087.1795,4119.4872,4112.8205,4054.8718,4131.2821,4138.4615,4123.5897,4104.6154,4133.8462,4087.1795,4118.4615,4039.4872
4096.4103,4124.6154,4118.9744,4063.5897,4131.2821,4130.2564,4128.2051,4121.5385,4191.2821,4062.0513,4158.9744,4055.8974
4118.4615,4132.3077,4141.0256,4075.8974,4145.641,4126.1538,4134.359,4142.0513,4208.2051,4111.2821,4160,4115.8974
4114.359,4127.1795,4141.0256,4071.7949,4156.9231,4133.8462,4129.7436,4134.359,4177.4359,4138.4615,4132.8205,4101.5385
4104.1026,4119.4872,4125.641,4066.6667,4157.4359,4142.0513,4123.5897,4106.1538,4138.4615,4100,4130.2564,4064.1026
4110.2564,4123.0769,4129.7436,4075.3846,4151.7949,4140,4125.1282,4104.6154,4148.7179,4091.2821,4145.641,4076.9231
4112.8205,4129.2308,4140.5128,4076.9231,4152.8205,4132.8205,4128.2051,4137.9487,4198.9744,4126.1538,4115.8974,4098.9744
4106.6667,4128.2051,4139.4872,4079.4872,4153.3333,4125.641,4133.3333,4145.641,4212.8205,4112.8205,4103.0769,4093.3333
4107.1795,4122.0513,4135.3846,4087.6923,4143.5897,4121.0256,4135.3846,4115.3846,4155.3846,4089.7436,4133.8462,4087.1795
4104.6154,4117.4359,4127.6923,4080.5128,4138.4615,4126.6667,4125.641,4098.4615,4140,4095.3846,4141.0256,4077.4359
4093.8462,4114.8718,4109.7436,4069.2308,4137.4359,4131.2821,4119.4872,4118.4615,4199.4872,4090.7692,4093.8462,4062.5641
4090.7692,4116.4103,4107.6923,4072.8205,4122.5641,4119.4872,4122.5641,4143.0769,4193.8462,4092.8205,4057.4359,4062.0513
4088.7179,4117.9487,4116.9231,4074.359,4124.6154,4116.9231,4122.0513,4122.0513,4143.0769,4090.2564,4101.0256,4062.5641
4079.4872,4116.9231,4109.2308,4068.7179,4150.2564,4135.8974,4119.4872,4087.6923,4161.0256,4070.2564,4132.3077,4056.9231
4089.7436,4122.5641,4107.1795,4071.7949,4150.7692,4140,4122.5641,4113.8462,4179.4872,4084.1026,4090.2564,4068.7179
4111.7949,4128.2051,4120.5128,4077.9487,4136.4103,4126.1538,4126.1538,4151.7949,4180,4106.1538,4083.5897,4089.2308
4115.3846,4128.2051,4125.641,4081.0256,4136.9231,4122.0513,4131.7949,4130.2564,4221.5385,4087.6923,4138.4615,4093.8462
4109.7436,4123.5897,4125.1282,4078.9744,4135.3846,4125.1282,4138.4615,4120,4203.0769,4100.5128,4116.9231,4092.3077
4102.5641,4121.0256,4123.5897,4069.7436,4141.0256,4138.4615,4140.5128,4141.0256,4119.4872,4123.0769,4068.2051,4082.0513
4095.3846,4123.0769,4116.9231,4063.0769,4155.3846,4154.359,4134.8718,4122.5641,4157.9487,4090.7692,4109.7436,4078.9744
4101.0256,4122.5641,4121.0256,4070.7692,4148.2051,4144.6154,4133.8462,4107.6923,4230.7692,4095.8974,4119.4872,4091.2821
4107.1795,4120.5128,4127.1795,4077.9487,4132.8205,4125.1282,4134.359,4125.641,4183.0769,4122.5641,4085.641,4082.5641
4106.6667,4120,4115.3846,4075.8974,4134.8718,4127.1795,4125.641,4131.7949,4134.8718,4104.1026,4098.9744,4076.9231
4105.641,4125.1282,4106.6667,4072.3077,4138.4615,4137.9487,4125.1282,4116.4103,4178.9744,4085.641,4130.7692,4091.7949
4094.359,4123.5897,4108.2051,4067.6923,4133.8462,4137.9487,4135.3846,4109.2308,4209.7436,4086.1538,4109.2308,4074.359
4092.3077,4118.4615,4115.8974,4072.3077,4134.359,4134.8718,4138.9744,4124.1026,4170.7692,4097.9487,4082.0513,4062.0513
4106.6667,4120.5128,4125.641,4085.641,4139.4872,4136.4103,4137.9487,4141.5385,4147.6923,4120,4098.4615,4090.2564
4106.1538,4121.0256,4124.6154,4083.5897,4141.5385,4141.0256,4140,4132.8205,4189.2308,4117.4359,4104.1026,4094.8718
4105.1282,4121.5385,4116.4103,4074.8718,4140,4141.0256,4140.5128,4118.4615,4222.5641,4094.8718,4092.3077,4085.641
4110.2564,4123.5897,4115.3846,4077.4359,4139.4872,4139.4872,4137.9487,4126.1538,4195.8974,4096.9231,4102.0513,4092.8205
4097.4359,4119.4872,4114.8718,4077.9487,4140.5128,4141.0256,4133.3333,4130.7692,4133.3333,4108.7179,4072.8205,4080.5128
4088.7179,4118.4615,4110.2564,4073.8462,4137.9487,4134.8718,4132.8205,4114.359,4160,4088.7179,4061.0256,4067.1795
4094.8718,4120.5128,4111.2821,4076.4103,4132.8205,4124.1026,4134.8718,4119.4872,4208.7179,4083.5897,4106.1538,4076.9231
4089.2308,4116.4103,4109.7436,4074.359,4129.2308,4123.0769,4127.6923,4140,4167.6923,4120.5128,4071.7949,4082.0513
4084.6154,4116.9231,4106.1538,4075.3846,4125.1282,4124.6154,4121.5385,4127.1795,4154.8718,4111.2821,4033.8462,4080.5128
4091.7949,4121.0256,4108.2051,4085.1282,4119.4872,4120.5128,4128.7179,4099.4872,4190.2564,4071.2821,4087.6923,4076.4103
4092.3077,4118.4615,4111.2821,4082.0513,4121.0256,4122.0513,4137.4359,4121.0256,4154.359,4102.0513,4082.5641,4075.3846
4086.6667,4115.8974,4110.2564,4071.2821,4131.7949,4130.2564,4136.9231,4145.641,4116.4103,4134.8718,4024.1026,4080
4093.8462,4122.5641,4113.8462,4079.4872,4133.3333,4126.6667,4132.3077,4112.8205,4193.8462,4084.1026,4071.2821,4078.9744
4105.641,4126.6667,4123.0769,4093.3333,4123.0769,4118.9744,4133.8462,4117.4359,4220,4075.8974,4094.8718,4077.4359
4100.5128,4121.5385,4127.1795,4087.1795,4121.0256,4129.7436,4138.4615,4146.6667,4151.7949,4126.1538,4036.4103,4072.8205
4082.5641,4118.4615,4120.5128,4078.4615,4123.5897,4136.4103,4132.3077,4113.8462,4157.4359,4116.4103,4035.3846,4069.2308
4089.7436,4119.4872,4115.8974,4083.0769,4117.4359,4126.6667,4126.6667,4101.0256,4204.1026,4089.7436,4058.4615,4083.0769
4122.0513,4124.6154,4129.7436,4092.8205,4107.1795,4120,4135.3846,4135.3846,4191.7949,4102.5641,4068.7179,4102.0513
4120.5128,4126.6667,4135.3846,4093.3333,4103.5897,4121.5385,4141.0256,4131.2821,4164.6154,4115.3846,4069.7436,4092.8205
4093.8462,4121.0256,4121.0256,4086.1538,4114.359,4129.7436,4132.8205,4103.5897,4177.4359,4107.1795,4050.7692,4071.2821
4092.3077,4120.5128,4119.4872,4081.0256,4133.3333,4141.0256,4130.7692,4115.8974,4170.7692,4101.5385,4027.1795,4070.2564
4111.2821,4125.641,4143.0769,4090.7692,4135.8974,4136.9231,4137.9487,4131.7949,4153.3333,4117.4359,4021.5385,4080
4122.5641,4125.1282,4154.359,4107.1795,4122.0513,4121.0256,4136.4103,4128.7179,4180,4121.0256,4046.6667,4090.2564
4120,4118.9744,4140,4104.6154,4121.0256,4123.0769,4127.6923,4120,4203.0769,4103.5897,4055.8974,4095.8974
4107.6923,4114.8718,4128.7179,4090.7692,4128.7179,4130.7692,4121.0256,4112.8205,4176.4103,4096.4103,4025.1282,4078.9744
4107.1795,4118.9744,4135.3846,4094.359,4116.4103,4122.5641,4122.5641,4121.0256,4157.4359,4118.9744,4012.8205,4073.8462
4117.9487,4123.5897,4143.5897,4103.0769,4104.6154,4116.9231,4130.2564,4126.1538,4181.0256,4126.1538,4043.0769,4095.8974
4115.3846,4118.4615,4135.3846,4093.8462,4123.0769,4130.2564,4137.9487,4121.0256,4199.4872,4109.2308,4054.359,4105.641
4104.1026,4113.3333,4122.5641,4078.9744,4143.0769,4150.2564,4138.9744,4122.0513,4174.359,4115.8974,4026.1538,4084.6154
4106.6667,4117.9487,4123.5897,4082.5641,4132.3077,4145.1282,4134.8718,4129.2308,4135.3846,4128.7179,4026.1538,4080
4116.9231,4124.1026,4134.359,4095.8974,4114.359,4118.4615,4138.4615,4142.5641,4138.4615,4131.7949,4047.1795,4091.2821
4122.5641,4125.1282,4139.4872,4100,4121.0256,4115.3846,4143.0769,4136.9231,4167.1795,4124.1026,4043.0769,4090.2564
4112.8205,4121.0256,4128.2051,4092.3077,4133.8462,4134.8718,4135.3846,4115.3846,4195.3846,4096.9231,4046.6667,4094.359
4103.5897,4120.5128,4121.5385,4090.2564,4130.2564,4133.3333,4130.2564,4131.7949,4219.4872,4107.6923,4043.5897,4106.6667
4117.4359,4123.0769,4133.8462,4095.8974,4129.7436,4126.1538,4136.9231,4145.641,4210.7692,4147.1795,4016.9231,4106.6667
4127.6923,4120.5128,4140,4094.8718,4142.0513,4136.4103,4140.5128,4120,4156.4103,4136.9231,4014.8718,4096.4103
4123.0769,4118.4615,4129.7436,4091.7949,4140.5128,4138.9744,4137.4359,4118.4615,4144.6154,4113.8462,4045.1282,4104.1026
4121.5385,4119.4872,4124.6154,4097.4359,4122.0513,4124.1026,4136.4103,4141.5385,4193.3333,4134.8718,4034.359,4115.8974
4112.8205,4113.8462,4125.641,4091.2821,4127.1795,4122.5641,4137.4359,4134.8718,4184.6154,4124.6154,4005.1282,4089.7436
4104.1026,4110.2564,4118.9744,4078.9744,4146.6667,4138.4615,4137.9487,4124.6154,4147.6923,4087.6923,4033.8462,4073.8462
4104.1026,4114.359,4115.8974,4083.0769,4137.9487,4139.4872,4140,4138.9744,4169.7436,4107.6923,4040,4095.3846
4110.7692,4121.0256,4131.7949,4095.8974,4124.6154,4124.1026,4141.5385,4141.5385,4205.1282,4141.5385,4005.641,4111.7949
4120.5128,4122.0513,4140,4100.5128,4135.8974,4117.9487,4137.9487,4128.7179,4190.2564,4123.0769,4016.4103,4103.0769
4114.8718,4117.9487,4124.6154,4091.2821,4148.7179,4130.7692,4131.7949,4116.9231,4149.7436,4096.9231,4037.4359,4093.8462
4093.3333,4113.3333,4115.3846,4078.9744,4142.0513,4140.5128,4132.8205,4123.0769,4136.4103,4111.7949,4019.4872,4083.5897
4091.2821,4116.9231,4122.5641,4079.4872,4135.8974,4132.3077,4137.9487,4146.6667,4154.8718,4128.7179,3991.2821,4077.9487
4102.5641,4122.5641,4124.1026,4088.2051,4140.5128,4122.5641,4138.9744,4140,4189.2308,4106.6667,4001.0256,4087.1795
4102.5641,4121.0256,4113.3333,4084.6154,4138.9744,4117.9487,4135.8974,4112.8205,4185.1282,4098.9744,4021.5385,4096.9231
4101.5385,4117.9487,4107.6923,4075.3846,4138.9744,4125.641,4134.359,4113.8462,4133.3333,4111.7949,4001.0256,4085.1282
4094.8718,4116.4103,4111.2821,4080.5128,4144.1026,4137.4359,4135.8974,4133.3333,4118.4615,4101.5385,3966.1538,4057.9487
4094.359,4120,4120,4090.7692,4135.8974,4125.641,4136.4103,4131.7949,4175.8974,4101.5385,3973.8462,4069.7436
4118.9744,4129.2308,4130.2564,4099.4872,4127.1795,4108.2051,4139.4872,4125.641,4206.6667,4124.1026,4017.4359,4112.8205
4121.5385,4121.5385,4127.1795,4092.3077,4138.9744,4124.1026,4140,4135.3846,4144.1026,4131.2821,4018.4615,4113.3333
4085.641,4108.2051,4109.2308,4072.3077,4144.6154,4143.0769,4132.3077,4142.0513,4093.3333,4109.7436,3965.1282,4068.2051
4083.5897,4115.8974,4108.2051,4074.359,4135.3846,4128.7179,4130.2564,4132.8205,4151.2821,4095.8974,3965.641,4067.1795
4118.4615,4127.1795,4129.2308,4095.3846,4136.9231,4115.8974,4143.0769,4129.2308,4209.2308,4114.8718,4026.1538,4107.1795
4109.2308,4118.9744,4123.5897,4090.7692,4145.641,4128.2051,4149.2308,4138.4615,4160.5128,4116.4103,4013.8462,4093.3333
4073.3333,4111.7949,4098.9744,4074.359,4149.2308,4143.0769,4137.4359,4135.3846,4102.5641,4092.3077,3952.3077,4063.5897
4084.6154,4123.0769,4108.2051,4084.6154,4152.8205,4140,4134.8718,4134.8718,4149.7436,4105.641,3975.8974,4078.9744
4116.4103,4130.2564,4134.359,4099.4872,4143.0769,4123.5897,4143.0769,4146.1538,4179.4872,4136.9231,4008.7179,4100.5128
4104.1026,4121.5385,4127.1795,4090.7692,4126.1538,4117.4359,4137.9487,4128.2051,4137.4359,4110.2564,3982.0513,4085.641
4082.5641,4116.9231,4106.6667,4084.1026,4134.8718,4130.7692,4131.7949,4101.5385,4129.2308,4085.641,3983.5897,4068.2051
4101.5385,4120.5128,4115.3846,4095.8974,4152.3077,4140.5128,4143.5897,4116.9231,4168.7179,4116.4103,4011.2821,4094.359
4113.8462,4124.1026,4131.7949,4105.641,4153.8462,4134.359,4157.4359,4153.8462,4166.6667,4130.2564,3987.6923,4103.0769
4107.1795,4125.641,4136.4103,4106.6667,4151.2821,4124.6154,4155.8974,4150.7692,4145.1282,4120,3964.6154,4083.5897
4117.4359,4123.0769,4135.3846,4108.2051,4151.7949,4122.5641,4152.3077,4119.4872,4157.9487,4123.0769,3988.7179,4097.9487
4115.3846,4117.4359,4127.6923,4103.0769,4154.8718,4131.7949,4149.7436,4120,4143.0769,4128.2051,3980.5128,4113.8462
4094.359,4118.4615,4117.9487,4096.9231,4157.4359,4140.5128,4146.6667,4141.0256,4097.9487,4118.9744,3945.1282,4072.8205
4096.9231,4124.1026,4118.9744,4096.9231,4150.2564,4136.9231,4149.7436,4120,4138.9744,4093.8462,3980,4049.2308
4106.1538,4123.5897,4125.641,4095.3846,4140,4133.3333,4154.8718,4116.4103,4195.3846,4093.3333,3999.4872,4086.6667
4093.8462,4121.0256,4119.4872,4090.2564,4140,4135.8974,4147.6923,4148.2051,4147.6923,4112.3077,3941.0256,4093.3333
4090.7692,4121.5385,4109.7436,4089.7436,4133.3333,4129.7436,4137.4359,4134.8718,4094.8718,4114.8718,3929.7436,4067.6923
4095.3846,4118.9744,4109.7436,4087.1795,4131.7949,4130.7692,4141.5385,4111.2821,4137.4359,4095.8974,3976.4103,4061.0256
4106.6667,4124.1026,4130.7692,4093.3333,4145.1282,4135.3846,4151.7949,4135.8974,4190.7692,4118.9744,3975.8974,4092.3077
4112.8205,4127.6923,4143.0769,4100,4150.7692,4134.359,4156.4103,4154.8718,4163.5897,4163.5897,3936.4103,4113.3333
4089.2308,4119.4872,4122.0513,4085.641,4144.1026,4141.0256,4153.8462,4133.8462,4093.3333,4141.0256,3934.359,4077.9487
4084.6154,4121.0256,4115.8974,4085.1282,4138.4615,4135.8974,4146.6667,4116.4103,4104.6154,4103.5897,3988.2051,4072.3077
4108.7179,4127.6923,4130.7692,4106.6667,4144.1026,4120.5128,4144.6154,4120,4193.8462,4111.2821,4016.9231,4096.9231
4116.4103,4123.0769,4130.7692,4108.7179,4152.8205,4124.1026,4152.3077,4142.0513,4182.5641,4129.7436,3968.2051,4085.641
4115.3846,4122.0513,4125.1282,4095.8974,4153.8462,4138.4615,4155.3846,4146.6667,4096.9231,4128.2051,3940,4082.0513
4111.2821,4123.0769,4125.641,4092.8205,4151.7949,4138.4615,4144.1026,4118.4615,4125.641,4115.3846,3977.9487,4096.4103
4098.9744,4117.4359,4121.0256,4091.2821,4148.2051,4132.8205,4144.1026,4122.0513,4177.4359,4109.2308,3991.7949,4083.0769
4107.1795,4119.4872,4125.641,4091.7949,4141.0256,4128.2051,4154.359,4144.1026,4148.2051,4126.1538,3960,4089.2308
4111.2821,4121.5385,4130.7692,4092.3077,4136.4103,4120,4151.2821,4140.5128,4115.8974,4148.2051,3915.3846,4103.5897
4078.9744,4114.359,4110.7692,4078.4615,4136.9231,4121.0256,4140,4120.5128,4115.8974,4116.4103,3917.9487,4055.8974
4081.5385,4118.9744,4101.0256,4074.8718,4134.8718,4131.7949,4141.5385,4112.8205,4143.5897,4084.6154,3975.8974,4055.8974
4117.9487,4129.2308,4120.5128,4091.2821,4138.4615,4143.0769,4154.8718,4132.3077,4149.2308,4117.9487,3980.5128,4113.3333
4117.4359,4125.1282,4137.4359,4098.9744,4141.0256,4134.8718,4160,4151.2821,4124.1026,4157.4359,3945.1282,4102.0513
4103.0769,4121.5385,4135.8974,4093.3333,4133.8462,4120.5128,4155.8974,4133.8462,4153.3333,4147.1795,3955.3846,4082.0513
4105.1282,4126.1538,4123.5897,4089.2308,4141.5385,4138.4615,4152.8205,4105.1282,4174.8718,4114.8718,3969.2308,4102.5641
4103.5897,4122.0513,4113.3333,4088.2051,4154.8718,4158.4615,4154.8718,4129.7436,4107.1795,4107.6923,3953.8462,4091.7949
4098.4615,4120,4123.5897,4089.7436,4142.5641,4138.9744,4155.8974,4166.1538,4100.5128,4143.0769,3935.3846,4086.1538
4105.1282,4125.1282,4140.5128,4096.4103,4122.5641,4112.3077,4153.8462,4150.2564,4160.5128,4165.1282,3924.6154,4108.2051
4104.6154,4117.9487,4127.6923,4089.7436,4133.3333,4127.6923,4147.6923,4109.2308,4154.359,4113.3333,3946.1538,4087.6923
4095.8974,4114.359,4111.2821,4076.9231,4146.6667,4150.7692,4145.1282,4111.7949,4126.6667,4094.359,3953.3333,4064.6154
4112.3077,4128.7179,4132.8205,4087.1795,4126.6667,4127.1795,4147.1795,4148.7179,4106.1538,4152.8205,3948.7179,4096.9231
4123.5897,4127.1795,4144.1026,4096.9231,4118.9744,4109.2308,4143.0769,4134.8718,4153.8462,4149.2308,3979.4872,4116.9231
4096.9231,4111.2821,4121.0256,4083.0769,4136.4103,4131.2821,4136.4103,4128.7179,4184.1026,4124.6154,3920.5128,4085.1282
4089.2308,4116.9231,4122.5641,4081.0256,4144.1026,4138.9744,4142.0513,4164.6154,4103.5897,4149.7436,3862.0513,4069.2308
4106.1538,4128.7179,4134.359,4092.3077,4142.0513,4131.2821,4144.1026,4146.1538,4097.9487,4144.6154,3951.7949,4091.7949
4103.0769,4122.5641,4127.1795,4087.1795,4131.2821,4131.7949,4137.4359,4127.1795,4149.2308,4143.5897,3946.1538,4098.4615
4103.5897,4118.4615,4125.1282,4083.5897,4121.5385,4125.641,4137.9487,4148.2051,4087.6923,4141.0256,3874.8718,4080.5128
4118.4615,4125.641,4130.2564,4089.7436,4135.3846,4129.2308,4139.4872,4118.9744,4085.1282,4090.2564,3972.3077,4080
4126.6667,4126.6667,4140.5128,4094.359,4149.7436,4138.9744,4135.3846,4100.5128,4185.641,4118.4615,4021.0256,4108.2051
4144.6154,4127.6923,4160.5128,4107.1795,4139.4872,4124.6154,4135.8974,4145.641,4168.2051,4187.6923,3951.7949,4135.8974
4146.1538,4126.6667,4154.8718,4109.7436,4137.9487,4117.4359,4136.4103,4128.2051,4121.0256,4135.8974,4001.0256,4146.6667
4110.2564,4117.4359,4126.6667,4086.6667,4144.1026,4130.2564,4136.9231,4106.1538,4140.5128,4105.1282,4000.5128,4111.7949
4096.9231,4115.3846,4118.9744,4080,4144.1026,4131.2821,4137.9487,4144.6154,4127.1795,4128.2051,3915.8974,4052.3077
4110.2564,4121.0256,4120,4091.2821,4141.0256,4124.1026,4130.2564,4133.3333,4123.5897,4105.641,3953.8462,4069.7436
4111.7949,4122.0513,4117.9487,4090.7692,4125.641,4117.9487,4124.6154,4105.1282,4134.8718,4110.7692,3982.0513,4115.8974
4101.0256,4117.4359,4121.0256,4086.6667,4128.7179,4122.0513,4127.6923,4120.5128,4131.2821,4112.3077,3958.9744,4075.8974
4094.359,4117.4359,4120.5128,4089.2308,4157.4359,4136.4103,4129.2308,4117.9487,4133.3333,4075.8974,3995.8974,4047.6923
4112.3077,4128.7179,4124.1026,4096.4103,4156.9231,4133.3333,4126.6667,4090.2564,4156.9231,4099.4872,4022.0513,4121.0256
4129.2308,4129.7436,4129.7436,4095.8974,4132.8205,4123.0769,4123.0769,4097.9487,4160.5128,4135.8974,3983.5897,4136.9231
4124.1026,4125.1282,4133.8462,4096.9231,4131.2821,4119.4872,4123.0769,4127.6923,4173.8462,4106.1538,3988.2051,4065.641
4134.8718,4125.1282,4144.6154,4108.2051,4145.1282,4114.359,4126.6667,4141.5385,4213.3333,4111.2821,4009.2308,4092.3077
4135.8974,4120.5128,4132.3077,4101.0256,4151.2821,4127.1795,4125.1282,4133.3333,4190.2564,4129.7436,3971.7949,4127.6923
4096.4103,4114.359,4104.6154,4079.4872,4156.9231,4144.1026,4117.4359,4110.7692,4118.9744,4084.1026,3986.1538,4061.5385
4091.7949,4120,4118.9744,4084.6154,4154.8718,4129.2308,4117.4359,4097.4359,4128.7179,4091.7949,4020,4064.6154
4128.7179,4127.1795,4148.2051,4101.0256,4142.5641,4107.1795,4124.6154,4106.1538,4222.0513,4137.4359,3994.8718,4136.9231
4123.5897,4118.4615,4127.6923,4089.7436,4138.9744,4116.4103,4125.1282,4130.2564,4200,4105.1282,3956.9231,4097.4359
4094.359,4112.8205,4098.4615,4077.9487,4152.8205,4138.9744,4116.4103,4125.1282,4107.6923,4070.7692,3926.1538,4036.9231
4092.8205,4120,4112.3077,4087.1795,4152.8205,4134.8718,4111.2821,4105.641,4136.4103,4101.0256,3958.9744,4065.1282
4112.8205,4121.5385,4131.7949,4099.4872,4127.6923,4108.7179,4116.4103,4106.1538,4213.3333,4104.6154,4049.2308,4080
4130.2564,4121.5385,4130.7692,4108.7179,4125.1282,4104.1026,4123.5897,4119.4872,4198.4615,4089.7436,4032.3077,4073.3333
4125.1282,4125.1282,4124.1026,4109.2308,4152.3077,4129.7436,4125.641,4122.5641,4135.3846,4106.6667,3943.0769,4090.7692
4108.7179,4120,4112.3077,4097.9487,4166.6667,4144.6154,4124.1026,4112.3077,4148.2051,4089.2308,3973.3333,4087.1795
4100.5128,4112.8205,4102.0513,4088.7179,4157.9487,4133.8462,4124.1026,4125.1282,4174.8718,4069.7436,4005.641,4050.2564
4109.2308,4116.9231,4114.359,4093.8462,4146.6667,4123.5897,4121.5385,4121.0256,4201.0256,4107.6923,3958.4615,4066.1538
4117.4359,4123.5897,4130.7692,4101.5385,4141.5385,4116.4103,4115.8974,4093.3333,4223.5897,4123.5897,3993.3333,4120
4105.1282,4119.4872,4112.3077,4094.8718,4140,4116.9231,4112.3077,4107.1795,4185.1282,4075.8974,4014.359,4094.359
4091.7949,4117.4359,4089.2308,4084.6154,4140,4123.0769,4107.6923,4131.7949,4112.8205,4061.0256,3932.8205,4015.8974
4101.0256,4124.1026,4105.1282,4092.8205,4136.9231,4119.4872,4108.7179,4115.8974,4132.3077,4085.641,3946.6667,4021.5385
4115.3846,4126.1538,4130.2564,4107.6923,4140.5128,4118.9744,4118.9744,4097.9487,4216.9231,4119.4872,4022.0513,4114.359
4109.2308,4119.4872,4121.5385,4102.0513,4147.6923,4127.6923,4123.5897,4110.2564,4198.9744,4131.7949,4000.5128,4122.0513
4098.9744,4117.4359,4102.0513,4089.2308,4144.6154,4131.2821,4117.4359,4118.4615,4163.0769,4084.6154,3972.3077,4049.7436
4098.9744,4118.4615,4107.6923,4087.1795,4137.9487,4124.1026,4117.4359,4132.8205,4170.7692,4063.0769,3976.9231,4055.8974
4105.1282,4120.5128,4121.0256,4090.7692,4138.9744,4116.4103,4123.5897,4118.9744,4169.2308,4097.9487,3986.6667,4104.1026
4113.3333,4122.0513,4121.5385,4096.4103,4140,4114.8718,4117.4359,4086.1538,4175.3846,4127.6923,4010.7692,4098.9744
4099.4872,4118.9744,4109.2308,4093.3333,4137.9487,4122.0513,4108.7179,4105.1282,4157.4359,4118.9744,3984.1026,4073.8462
4084.1026,4117.4359,4106.1538,4088.7179,4138.4615,4125.641,4111.2821,4127.1795,4144.6154,4089.2308,3942.5641,4073.8462
4098.4615,4120,4115.3846,4096.4103,4137.9487,4115.8974,4114.359,4105.1282,4172.8205,4061.5385,3991.2821,4064.6154
4098.9744,4114.359,4103.0769,4092.8205,4140.5128,4128.7179,4113.3333,4092.3077,4135.8974,4058.4615,3998.9744,4034.8718
4082.0513,4109.7436,4096.4103,4079.4872,4137.9487,4138.4615,4115.8974,4114.8718,4085.1282,4101.5385,3935.8974,4042.0513
4096.9231,4122.0513,4124.6154,4090.2564,4117.4359,4110.7692,4122.0513,4133.8462,4150.2564,4132.8205,3954.359,4093.3333
4116.9231,4130.2564,4138.4615,4103.5897,4111.2821,4100.5128,4125.1282,4126.1538,4192.3077,4104.6154,4005.641,4107.1795
4096.4103,4120,4121.0256,4093.3333,4130.7692,4123.5897,4127.1795,4127.6923,4135.3846,4074.359,3970.2564,4057.9487
4082.0513,4114.359,4113.8462,4088.7179,4143.0769,4131.7949,4125.1282,4108.2051,4127.1795,4072.8205,3966.1538,4037.4359
4094.359,4119.4872,4114.8718,4094.8718,4135.3846,4121.5385,4119.4872,4096.9231,4145.1282,4106.1538,3981.5385,4079.4872
4093.3333,4122.0513,4104.6154,4089.7436,4128.2051,4121.0256,4121.0256,4128.2051,4110.7692,4118.9744,3951.7949,4082.5641
4094.8718,4123.5897,4106.1538,4094.8718,4134.359,4124.6154,4122.5641,4113.8462,4143.5897,4064.1026,3991.2821,4047.1795
4102.5641,4121.5385,4116.4103,4107.6923,4134.359,4121.0256,4118.9744,4073.8462,4220.5128,4025.641,4044.6154,4049.2308
4101.0256,4121.0256,4125.641,4105.1282,4122.0513,4109.2308,4124.6154,4128.7179,4184.1026,4093.3333,3977.9487,4086.6667
4099.4872,4120.5128,4127.6923,4093.3333,4116.9231,4107.6923,4126.6667,4162.5641,4086.1538,4171.7949,3907.1795,4104.1026
4096.4103,4115.8974,4109.7436,4090.2564,4124.1026,4125.1282,4110.2564,4075.8974,4124.6154,4105.1282,3982.0513,4067.6923
4086.1538,4112.8205,4097.9487,4091.2821,4126.6667,4129.2308,4108.2051,4078.4615,4195.8974,4025.1282,4040,4050.2564
4093.3333,4116.9231,4105.641,4090.7692,4123.5897,4113.3333,4125.1282,4145.1282,4141.5385,4054.8718,3985.641,4073.8462
4104.6154,4124.1026,4108.7179,4091.7949,4124.1026,4104.1026,4126.6667,4110.2564,4148.7179,4092.3077,3962.0513,4079.4872
4095.8974,4124.6154,4109.2308,4092.3077,4124.1026,4115.3846,4119.4872,4101.0256,4178.9744,4125.641,3950.7692,4090.7692
4088.2051,4117.9487,4111.2821,4092.8205,4129.2308,4127.1795,4122.0513,4125.641,4127.1795,4096.4103,3973.3333,4086.6667
4089.7436,4116.4103,4102.5641,4085.641,4132.3077,4122.0513,4124.1026,4111.7949,4113.3333,4041.0256,3981.5385,4051.7949
4077.9487,4117.9487,4096.4103,4075.8974,4115.8974,4115.3846,4123.0769,4110.2564,4148.2051,4063.0769,3928.2051,4044.6154
4061.5385,4118.9744,4099.4872,4075.8974,4108.7179,4124.1026,4123.0769,4120,4145.1282,4083.0769,3959.4872,4050.2564
4078.9744,4127.6923,4104.6154,4085.641,4125.1282,4127.1795,4120.5128,4112.8205,4135.3846,4058.4615,4040,4062.0513
4120.5128,4129.2308,4118.4615,4099.4872,4117.9487,4107.1795,4124.1026,4124.6154,4155.8974,4103.5897,3997.9487,4111.7949
4108.7179,4113.3333,4113.8462,4091.2821,4098.9744,4110.2564,4124.6154,4112.3077,4122.0513,4141.0256,3931.7949,4105.1282
4062.5641,4109.7436,4083.5897,4068.2051,4114.8718,4135.8974,4117.9487,4090.7692,4082.0513,4066.1538,3954.8718,4032.8205
4074.8718,4125.1282,4094.8718,4072.3077,4123.5897,4124.6154,4123.0769,4141.0256,4107.1795,4062.5641,3964.6154,4041.5385
4110.7692,4126.6667,4125.641,4094.8718,4110.7692,4101.0256,4126.6667,4152.3077,4150.2564,4121.0256,3973.3333,4091.7949
4102.5641,4118.9744,4110.2564,4093.3333,4117.4359,4117.9487,4120,4086.6667,4144.1026,4087.6923,4011.7949,4084.6154
4094.359,4123.5897,4100.5128,4087.1795,4125.641,4134.359,4128.2051,4098.4615,4097.4359,4066.1538,3967.6923,4078.9744
4114.359,4128.2051,4126.6667,4105.1282,4115.8974,4117.4359,4136.9231,4130.7692,4142.0513,4089.7436,3963.0769,4095.3846
4111.2821,4118.4615,4123.5897,4104.1026,4117.4359,4112.8205,4123.0769,4097.9487,4167.6923,4095.8974,4010.7692,4081.5385
4087.1795,4114.359,4098.9744,4083.5897,4125.641,4127.6923,4114.8718,4100.5128,4088.7179,4097.9487,3962.0513,4055.3846
4092.3077,4123.0769,4105.1282,4087.1795,4118.4615,4126.1538,4123.5897,4134.8718,4107.6923,4102.5641,3943.5897,4077.9487
4096.9231,4122.5641,4115.8974,4097.4359,4105.641,4110.2564,4123.5897,4122.0513,4175.8974,4092.8205,3992.3077,4110.2564
4078.9744,4112.3077,4104.1026,4082.0513,4104.1026,4110.2564,4117.4359,4101.0256,4142.0513,4077.4359,3970.7692,4075.8974
4078.9744,4116.4103,4097.4359,4074.8718,4114.8718,4123.0769,4122.0513,4101.0256,4134.8718,4078.4615,3946.6667,4049.7436
4098.9744,4128.2051,4108.2051,4092.3077,4117.4359,4121.0256,4131.2821,4122.0513,4149.7436,4110.7692,3954.359,4085.641
4096.9231,4123.5897,4108.7179,4095.3846,4118.9744,4128.7179,4131.2821,4129.7436,4095.8974,4104.6154,3955.3846,4083.0769
4100,4121.5385,4105.1282,4094.8718,4130.2564,4138.4615,4126.1538,4102.5641,4127.6923,4065.641,3992.3077,4078.4615
