"AF3","F7","F3","FC5","T7","P7","O1","O2","FC6","F4","F8","AF4"
4124.6154,4125.1282,4135.3846,4139.4872,4138.9744,4132.3077,4138.4615,4151.7949,4147.6923,4141.0256,4152.3077,4131.7949
4128.7179,4123.5897,4131.7949,4140.5128,4138.9744,4134.359,4138.4615,4153.3333,4143.5897,4138.4615,4153.3333,4132.3077
4132.3077,4129.7436,4133.3333,4142.0513,4137.9487,4138.4615,4137.9487,4147.6923,4146.1538,4141.0256,4155.3846,4131.2821
4131.2821,4131.2821,4137.4359,4142.5641,4137.4359,4141.0256,4141.0256,4151.2821,4152.8205,4145.1282,4156.9231,4132.8205
4125.641,4126.1538,4135.3846,4137.9487,4137.9487,4139.4872,4138.9744,4152.8205,4149.7436,4144.1026,4151.7949,4133.8462
4123.5897,4126.6667,4135.8974,4135.8974,4139.4872,4137.9487,4135.8974,4144.6154,4145.1282,4145.1282,4149.7436,4129.7436
4125.641,4128.2051,4134.8718,4139.4872,4140,4138.9744,4137.4359,4137.4359,4142.5641,4146.1538,4154.359,4130.2564
4120.5128,4124.1026,4125.1282,4135.3846,4137.4359,4135.8974,4137.4359,4134.359,4136.4103,4137.9487,4149.7436,4131.2821
4111.2821,4122.5641,4118.9744,4126.6667,4134.359,4130.2564,4134.8718,4130.7692,4133.8462,4130.2564,4136.4103,4124.6154
4112.3077,4128.7179,4123.0769,4130.2564,4136.4103,4132.3077,4134.8718,4125.1282,4133.8462,4128.7179,4130.2564,4118.9744
4122.0513,4131.2821,4132.8205,4140,4135.8974,4139.4872,4131.7949,4127.1795,4136.4103,4136.4103,4137.4359,4126.1538
4128.7179,4130.7692,4140.5128,4140.5128,4129.2308,4135.8974,4126.6667,4134.359,4145.641,4147.1795,4151.2821,4136.9231
4132.8205,4131.2821,4140,4142.0513,4128.7179,4131.7949,4127.1795,4139.4872,4148.2051,4148.7179,4158.9744,4140
4134.8718,4127.1795,4135.8974,4153.3333,4134.8718,4138.4615,4128.7179,4140.5128,4137.4359,4145.1282,4161.5385,4140
4136.9231,4125.1282,4137.9487,4158.9744,4138.4615,4137.4359,4123.0769,4132.3077,4127.1795,4142.5641,4164.1026,4143.5897
4144.6154,4131.7949,4140.5128,4147.1795,4138.4615,4127.6923,4121.0256,4125.1282,4130.2564,4143.0769,4170.2564,4152.3077
4140.5128,4133.8462,4137.4359,4134.359,4140.5128,4129.7436,4124.1026,4131.2821,4138.4615,4145.1282,4177.4359,4150.2564
4141.5385,4128.2051,4135.3846,4146.1538,4142.0513,4138.9744,4123.0769,4133.8462,4143.0769,4145.641,4185.641,4147.1795
4167.6923,4133.8462,4140.5128,4163.0769,4140.5128,4136.9231,4121.0256,4124.1026,4149.2308,4147.1795,4203.5897,4168.7179
4175.3846,4141.5385,4139.4872,4157.4359,4139.4872,4128.2051,4120.5128,4117.9487,4148.7179,4141.0256,4212.3077,4178.4615
4170.7692,4135.3846,4135.8974,4156.9231,4139.4872,4126.6667,4118.4615,4116.4103,4141.5385,4138.4615,4214.8718,4172.8205
4190.2564,4133.3333,4146.1538,4173.8462,4140.5128,4130.2564,4117.4359,4116.9231,4145.641,4149.7436,4238.9744,4186.1538
4197.4359,4140.5128,4150.2564,4176.9231,4138.4615,4128.2051,4114.359,4117.9487,4146.1538,4148.2051,4251.7949,4187.6923
4183.0769,4140,4141.5385,4166.1538,4135.8974,4124.1026,4107.1795,4114.359,4134.359,4136.9231,4238.4615,4172.8205
4183.5897,4137.9487,4145.641,4167.1795,4137.9487,4128.7179,4110.2564,4114.359,4134.359,4139.4872,4246.6667,4176.4103
4189.7436,4129.2308,4154.8718,4176.4103,4141.0256,4136.9231,4123.5897,4126.1538,4149.7436,4150.7692,4273.3333,4183.5897
4183.5897,4117.9487,4148.2051,4175.3846,4142.5641,4133.8462,4121.5385,4127.1795,4149.7436,4152.8205,4270.2564,4177.9487
4178.4615,4127.1795,4137.9487,4166.1538,4143.5897,4126.1538,4106.6667,4118.4615,4137.4359,4147.1795,4261.0256,4177.4359
4169.2308,4132.8205,4138.4615,4175.3846,4138.9744,4129.2308,4111.7949,4122.0513,4133.8462,4143.5897,4266.6667,4173.8462
4164.6154,4121.0256,4138.9744,4192.8205,4137.9487,4134.8718,4122.0513,4125.641,4129.7436,4142.0513,4263.5897,4162.0513
4168.7179,4124.1026,4139.4872,4175.3846,4152.3077,4136.9231,4114.359,4121.0256,4128.7179,4147.1795,4262.5641,4163.5897
4161.0256,4133.3333,4138.9744,4146.6667,4156.4103,4136.9231,4112.3077,4119.4872,4134.359,4154.359,4266.6667,4163.5897
4152.8205,4128.2051,4136.4103,4151.7949,4145.1282,4134.8718,4121.0256,4119.4872,4134.359,4153.3333,4263.0769,4153.8462
4158.4615,4122.0513,4137.9487,4159.4872,4146.6667,4137.4359,4123.5897,4121.0256,4135.8974,4155.8974,4262.0513,4155.8974
4162.0513,4124.1026,4140.5128,4150.2564,4151.7949,4138.9744,4121.5385,4122.5641,4141.0256,4162.5641,4266.1538,4165.1282
4155.3846,4120.5128,4138.9744,4159.4872,4141.5385,4135.3846,4124.1026,4123.5897,4140.5128,4162.5641,4266.1538,4164.1026
4151.2821,4120,4134.8718,4169.7436,4135.8974,4136.9231,4128.7179,4128.2051,4137.9487,4163.5897,4261.5385,4155.3846
4153.8462,4129.7436,4134.8718,4158.4615,4141.0256,4135.3846,4128.7179,4127.1795,4137.4359,4166.1538,4258.9744,4151.7949
4155.3846,4130.7692,4135.8974,4155.8974,4138.4615,4125.641,4122.5641,4122.5641,4136.4103,4164.6154,4262.0513,4156.9231
4154.8718,4118.4615,4136.9231,4174.359,4135.3846,4128.2051,4120,4128.7179,4133.3333,4163.0769,4262.0513,4156.9231
4154.8718,4117.4359,4135.3846,4167.6923,4137.9487,4133.3333,4124.1026,4133.8462,4134.359,4162.5641,4252.8205,4152.3077
4153.8462,4124.6154,4133.8462,4145.641,4137.4359,4127.1795,4124.6154,4126.1538,4141.5385,4165.1282,4249.7436,4155.3846
4145.1282,4118.9744,4137.4359,4161.0256,4136.9231,4124.1026,4121.5385,4122.5641,4137.9487,4164.1026,4246.1538,4150.7692
4140,4117.9487,4136.4103,4172.3077,4140,4128.2051,4120.5128,4127.1795,4123.5897,4161.0256,4235.8974,4141.5385
4143.0769,4129.7436,4131.2821,4149.2308,4141.0256,4130.7692,4121.0256,4124.6154,4126.6667,4161.5385,4241.5385,4147.1795
4141.0256,4132.3077,4133.3333,4140.5128,4139.4872,4136.4103,4124.1026,4125.641,4134.359,4161.0256,4246.1538,4148.2051
4140,4125.1282,4138.9744,4154.359,4138.9744,4140,4125.641,4137.4359,4128.7179,4160.5128,4235.8974,4142.0513
4148.7179,4126.6667,4138.4615,4152.8205,4138.9744,4128.7179,4123.0769,4140.5128,4127.6923,4160.5128,4234.8718,4144.6154
4147.6923,4125.1282,4135.3846,4145.1282,4138.9744,4122.5641,4118.9744,4136.9231,4132.8205,4160.5128,4238.4615,4144.6154
4141.0256,4118.4615,4137.4359,4151.7949,4137.9487,4131.2821,4120.5128,4136.4103,4133.3333,4161.0256,4234.8718,4142.0513
4142.5641,4125.641,4137.4359,4153.8462,4138.9744,4138.9744,4126.6667,4134.359,4132.8205,4158.9744,4231.2821,4145.1282
4141.5385,4128.7179,4130.7692,4150.7692,4145.1282,4138.4615,4126.6667,4128.7179,4131.7949,4155.3846,4222.5641,4143.5897
4143.0769,4128.2051,4127.6923,4152.3077,4152.8205,4135.3846,4121.0256,4125.641,4124.1026,4154.8718,4211.7949,4137.9487
4152.3077,4135.3846,4134.359,4156.4103,4153.3333,4135.8974,4121.5385,4124.6154,4123.0769,4157.9487,4213.8462,4143.0769
4153.3333,4130.7692,4136.9231,4161.5385,4148.7179,4139.4872,4126.1538,4125.1282,4124.1026,4157.9487,4216.9231,4147.6923
4152.8205,4122.0513,4133.3333,4169.2308,4149.2308,4136.9231,4123.0769,4123.0769,4119.4872,4153.8462,4222.5641,4146.1538
4171.2821,4135.3846,4137.9487,4172.8205,4151.7949,4129.7436,4120,4122.0513,4126.6667,4159.4872,4243.5897,4161.5385
4192.8205,4154.359,4149.2308,4167.6923,4152.3077,4132.3077,4123.5897,4132.8205,4138.9744,4169.2308,4261.0256,4182.5641
4198.4615,4151.7949,4154.8718,4173.8462,4152.3077,4139.4872,4123.0769,4137.9487,4141.0256,4170.2564,4266.6667,4184.6154
4206.1538,4147.1795,4153.8462,4188.7179,4150.2564,4133.3333,4114.8718,4126.1538,4140,4169.7436,4271.2821,4185.641
4211.2821,4147.6923,4150.2564,4187.6923,4146.1538,4123.0769,4105.1282,4117.4359,4139.4872,4163.5897,4267.1795,4192.8205
4207.6923,4135.8974,4153.8462,4193.3333,4140,4119.4872,4104.1026,4121.5385,4138.4615,4161.5385,4258.4615,4194.359
4211.2821,4133.8462,4164.1026,4206.1538,4142.5641,4126.1538,4113.8462,4125.641,4147.6923,4169.7436,4259.4872,4196.9231
4210.2564,4144.6154,4162.0513,4187.6923,4151.7949,4135.3846,4120,4125.641,4155.3846,4171.2821,4260,4198.9744
4194.8718,4139.4872,4152.8205,4161.0256,4150.2564,4136.9231,4118.9744,4122.5641,4146.1538,4164.1026,4247.1795,4191.2821
4183.0769,4125.1282,4151.7949,4164.6154,4143.0769,4133.8462,4121.0256,4117.4359,4135.3846,4157.4359,4231.7949,4179.4872
4176.4103,4121.0256,4149.2308,4172.3077,4146.1538,4137.9487,4125.1282,4119.4872,4129.7436,4156.9231,4221.0256,4170.7692
4168.2051,4122.0513,4139.4872,4166.1538,4154.359,4142.0513,4126.1538,4125.1282,4126.6667,4157.4359,4213.3333,4166.1538
4167.1795,4121.5385,4137.4359,4162.5641,4154.8718,4139.4872,4126.1538,4123.5897,4130.2564,4158.4615,4216.4103,4168.2051
4166.1538,4120,4142.0513,4162.0513,4149.2308,4138.4615,4127.6923,4125.641,4131.7949,4156.9231,4219.4872,4166.1538
4153.3333,4118.9744,4138.9744,4166.1538,4145.1282,4141.0256,4126.6667,4131.2821,4123.5897,4148.2051,4204.6154,4153.3333
4152.8205,4123.5897,4138.4615,4167.6923,4142.5641,4141.5385,4126.1538,4130.2564,4121.5385,4147.6923,4195.8974,4153.8462
4160.5128,4129.2308,4142.5641,4156.4103,4140,4138.9744,4125.1282,4125.1282,4126.6667,4151.2821,4202.5641,4160
4151.7949,4123.5897,4141.5385,4153.8462,4144.1026,4139.4872,4127.1795,4125.1282,4124.1026,4146.1538,4196.4103,4148.2051
4139.4872,4121.0256,4137.9487,4155.8974,4147.6923,4140.5128,4128.7179,4129.7436,4123.5897,4144.1026,4184.6154,4140
4138.4615,4126.6667,4136.4103,4144.1026,4144.1026,4141.0256,4128.7179,4131.2821,4124.1026,4145.1282,4184.1026,4145.641
4141.5385,4123.5897,4136.4103,4138.9744,4141.5385,4145.1282,4131.7949,4130.7692,4124.1026,4144.6154,4187.1795,4145.641
4137.4359,4119.4872,4135.8974,4147.1795,4142.0513,4145.1282,4131.7949,4132.3077,4126.1538,4145.1282,4185.1282,4136.9231
4128.2051,4124.6154,4135.3846,4143.0769,4140.5128,4138.9744,4125.641,4134.359,4121.0256,4142.5641,4176.9231,4133.3333
4130.2564,4126.1538,4139.4872,4134.359,4138.4615,4137.9487,4123.0769,4138.4615,4121.0256,4143.0769,4177.4359,4141.0256
4139.4872,4121.5385,4143.0769,4142.5641,4138.4615,4140,4124.6154,4138.9744,4131.7949,4149.2308,4185.1282,4147.1795
4134.8718,4124.1026,4140,4146.1538,4144.1026,4138.9744,4126.6667,4135.3846,4128.2051,4146.1538,4178.9744,4139.4872
4124.6154,4130.2564,4135.8974,4132.3077,4148.7179,4145.1282,4128.7179,4134.359,4117.9487,4134.359,4169.7436,4131.7949
4124.6154,4126.1538,4132.3077,4125.641,4145.641,4149.7436,4125.641,4131.7949,4117.4359,4130.2564,4173.3333,4130.7692
4124.1026,4117.4359,4129.2308,4137.9487,4143.0769,4143.5897,4121.0256,4127.1795,4118.9744,4136.9231,4171.7949,4129.7436
4120.5128,4120.5128,4128.2051,4141.5385,4147.6923,4140,4123.0769,4131.7949,4115.8974,4134.8718,4163.5897,4129.2308
4122.0513,4134.359,4127.1795,4127.6923,4148.7179,4142.0513,4125.641,4134.8718,4111.2821,4127.6923,4163.0769,4129.2308
4118.4615,4135.3846,4123.0769,4116.4103,4144.6154,4140.5128,4121.0256,4130.2564,4108.2051,4127.1795,4161.0256,4125.1282
4109.7436,4124.6154,4121.0256,4120.5128,4142.0513,4136.9231,4120.5128,4129.7436,4104.1026,4127.1795,4152.8205,4115.8974
4110.2564,4119.4872,4123.5897,4126.1538,4141.0256,4138.4615,4126.6667,4128.7179,4099.4872,4123.5897,4150.2564,4115.8974
4109.2308,4122.5641,4119.4872,4115.8974,4141.0256,4138.4615,4125.641,4123.5897,4097.9487,4118.4615,4150.2564,4117.9487
4103.5897,4128.2051,4113.3333,4108.2051,4138.9744,4138.9744,4123.0769,4123.5897,4101.0256,4116.4103,4146.6667,4112.3077
4114.359,4129.2308,4117.4359,4120,4136.9231,4140.5128,4125.1282,4124.6154,4106.1538,4123.5897,4150.7692,4114.359
4124.1026,4127.6923,4124.6154,4127.6923,4138.9744,4139.4872,4126.1538,4123.5897,4107.1795,4125.641,4153.8462,4118.9744
4114.8718,4124.6154,4123.5897,4120,4137.9487,4139.4872,4124.6154,4127.6923,4105.641,4122.0513,4146.1538,4116.4103
4112.8205,4126.6667,4121.5385,4119.4872,4138.9744,4141.5385,4124.6154,4130.2564,4103.5897,4122.0513,4144.1026,4115.3846
4121.0256,4127.6923,4123.5897,4125.641,4146.6667,4141.0256,4124.6154,4125.641,4103.0769,4123.0769,4150.7692,4121.0256
4121.0256,4123.5897,4123.5897,4125.641,4149.2308,4138.9744,4121.5385,4122.5641,4104.6154,4118.4615,4146.6667,4123.0769
4115.8974,4121.5385,4122.5641,4125.1282,4148.2051,4147.1795,4123.0769,4129.2308,4107.1795,4114.8718,4138.4615,4117.4359
4114.359,4124.6154,4123.0769,4123.0769,4146.6667,4151.7949,4128.2051,4135.3846,4103.0769,4118.9744,4141.5385,4117.4359
4114.8718,4125.641,4121.5385,4122.5641,4142.0513,4144.6154,4127.1795,4128.7179,4096.4103,4118.4615,4141.0256,4118.9744
4114.359,4125.641,4120,4124.6154,4136.9231,4139.4872,4121.0256,4121.0256,4102.0513,4112.3077,4136.9231,4115.8974
4110.2564,4127.1795,4119.4872,4123.0769,4136.9231,4144.1026,4123.0769,4126.1538,4111.2821,4114.359,4137.4359,4116.4103
4107.6923,4126.6667,4118.4615,4122.0513,4138.9744,4150.2564,4134.8718,4135.8974,4105.641,4116.4103,4135.8974,4117.4359
4112.3077,4124.6154,4120,4124.6154,4136.9231,4153.8462,4140.5128,4140.5128,4101.0256,4117.9487,4135.3846,4118.4615
4116.4103,4124.6154,4122.5641,4125.641,4136.4103,4155.3846,4140,4139.4872,4108.2051,4118.4615,4142.0513,4122.5641
4120,4128.2051,4123.5897,4127.6923,4139.4872,4148.2051,4135.3846,4137.4359,4114.8718,4120.5128,4151.7949,4127.1795
4123.0769,4127.1795,4125.1282,4128.7179,4138.4615,4142.5641,4129.7436,4137.9487,4112.8205,4128.7179,4150.2564,4128.2051
4120.5128,4126.1538,4126.1538,4126.6667,4135.3846,4148.2051,4126.1538,4136.4103,4107.6923,4127.6923,4138.9744,4126.1538
4117.4359,4126.6667,4124.1026,4125.641,4136.9231,4150.7692,4127.1795,4136.9231,4109.7436,4120,4135.3846,4125.1282
4115.8974,4123.5897,4122.0513,4125.1282,4140.5128,4146.6667,4132.8205,4141.5385,4111.2821,4122.0513,4140,4120
4114.8718,4122.0513,4124.1026,4126.6667,4138.4615,4148.2051,4136.4103,4143.0769,4104.6154,4125.1282,4135.8974,4116.9231
4118.4615,4120.5128,4127.1795,4128.2051,4137.4359,4150.7692,4132.3077,4138.9744,4104.6154,4123.5897,4130.2564,4123.5897
4118.9744,4124.1026,4125.1282,4126.1538,4138.9744,4142.0513,4125.1282,4133.3333,4112.3077,4121.5385,4134.359,4124.1026
4121.5385,4131.2821,4128.7179,4130.2564,4138.9744,4140.5128,4125.641,4134.8718,4115.8974,4126.1538,4141.0256,4124.6154
4132.8205,4131.2821,4139.4872,4140.5128,4139.4872,4150.2564,4129.7436,4140.5128,4121.5385,4135.8974,4148.7179,4134.359
4133.3333,4125.641,4135.8974,4140,4138.9744,4147.1795,4125.1282,4139.4872,4128.2051,4134.359,4152.8205,4136.4103
4128.2051,4123.5897,4123.5897,4135.8974,4138.4615,4137.9487,4120,4134.359,4127.6923,4128.2051,4150.7692,4132.8205
4131.7949,4128.2051,4128.7179,4138.4615,4141.0256,4143.5897,4122.5641,4135.8974,4124.6154,4127.6923,4146.6667,4134.359
4129.7436,4130.2564,4134.359,4131.7949,4140,4150.2564,4125.641,4138.9744,4123.5897,4130.7692,4140,4133.8462
4121.5385,4126.6667,4125.641,4127.1795,4136.9231,4145.641,4122.5641,4137.9487,4128.7179,4132.8205,4136.4103,4133.8462
4123.5897,4128.7179,4126.1538,4136.4103,4139.4872,4146.6667,4123.5897,4136.4103,4131.2821,4129.2308,4135.3846,4134.8718
4127.6923,4131.7949,4136.9231,4140.5128,4142.5641,4156.4103,4129.7436,4133.8462,4127.1795,4125.641,4129.2308,4131.7949
4121.0256,4129.2308,4134.8718,4134.8718,4139.4872,4151.2821,4130.7692,4131.2821,4126.6667,4124.1026,4122.0513,4125.1282
4120.5128,4129.7436,4131.7949,4134.359,4136.9231,4141.5385,4127.1795,4129.2308,4132.3077,4125.641,4120.5128,4125.1282
4124.6154,4133.3333,4135.8974,4137.4359,4138.4615,4143.5897,4130.2564,4126.1538,4137.4359,4125.1282,4123.0769,4127.6923
4121.0256,4132.8205,4131.7949,4138.4615,4139.4872,4144.6154,4136.4103,4123.0769,4130.7692,4120,4114.359,4123.0769
4122.0513,4130.7692,4131.7949,4139.4872,4138.4615,4142.5641,4133.8462,4127.1795,4126.1538,4124.6154,4109.2308,4124.6154
4128.7179,4133.3333,4136.4103,4137.9487,4137.9487,4140,4130.2564,4130.7692,4132.3077,4130.7692,4120.5128,4130.2564
4120.5128,4127.6923,4126.1538,4136.9231,4138.4615,4138.9744,4135.3846,4123.5897,4131.7949,4121.0256,4116.9231,4123.0769
4112.8205,4119.4872,4121.0256,4140,4138.9744,4144.1026,4142.0513,4124.1026,4131.7949,4116.9231,4105.1282,4118.4615
4125.1282,4129.7436,4134.8718,4142.5641,4145.1282,4150.7692,4140,4137.4359,4146.6667,4127.6923,4119.4872,4131.2821
4135.3846,4134.8718,4142.5641,4144.1026,4146.6667,4145.641,4138.4615,4143.0769,4156.9231,4133.3333,4136.9231,4140.5128
4129.7436,4122.0513,4137.9487,4152.3077,4141.0256,4137.9487,4140,4137.9487,4148.2051,4128.7179,4127.6923,4133.3333
4124.6154,4120,4137.9487,4152.3077,4143.5897,4144.1026,4140,4137.4359,4143.5897,4128.7179,4116.9231,4128.2051
4129.2308,4130.2564,4138.4615,4141.5385,4147.6923,4154.359,4143.5897,4141.0256,4152.3077,4132.3077,4121.5385,4133.3333
4130.7692,4129.7436,4136.9231,4144.6154,4144.1026,4154.8718,4150.7692,4138.9744,4152.3077,4128.7179,4125.1282,4133.3333
4126.6667,4123.5897,4140,4153.8462,4140.5128,4152.3077,4153.8462,4139.4872,4148.7179,4129.2308,4124.1026,4130.7692
4121.0256,4121.5385,4135.8974,4147.1795,4141.0256,4153.8462,4153.3333,4142.5641,4148.2051,4130.2564,4117.9487,4125.641
4118.9744,4121.0256,4125.1282,4136.4103,4138.4615,4155.8974,4150.2564,4141.5385,4145.641,4123.0769,4112.3077,4120
4122.5641,4128.7179,4128.7179,4143.5897,4136.4103,4152.3077,4148.7179,4144.1026,4151.2821,4123.5897,4118.9744,4126.1538
4125.1282,4135.3846,4139.4872,4151.2821,4140.5128,4152.3077,4150.2564,4153.8462,4158.4615,4129.2308,4126.6667,4131.7949
4124.6154,4128.2051,4138.9744,4148.2051,4142.0513,4156.4103,4152.3077,4158.9744,4157.4359,4130.2564,4124.6154,4127.6923
4122.5641,4124.6154,4137.4359,4149.7436,4140,4156.4103,4154.359,4157.9487,4154.359,4130.7692,4121.5385,4127.6923
4123.5897,4133.3333,4140.5128,4153.3333,4138.9744,4153.8462,4151.2821,4153.8462,4149.2308,4129.7436,4121.5385,4132.3077
4123.0769,4134.8718,4138.9744,4147.1795,4141.5385,4153.3333,4143.0769,4143.0769,4143.5897,4127.6923,4120.5128,4127.6923
4119.4872,4130.2564,4134.8718,4138.9744,4142.5641,4151.7949,4143.0769,4135.8974,4142.0513,4122.5641,4116.4103,4116.9231
4118.9744,4126.1538,4133.8462,4138.9744,4137.9487,4150.7692,4152.8205,4140,4148.2051,4121.0256,4117.9487,4118.4615
4122.5641,4126.6667,4133.3333,4141.0256,4137.9487,4151.7949,4154.8718,4143.5897,4156.4103,4127.1795,4128.2051,4129.2308
4123.5897,4131.7949,4134.359,4140,4140.5128,4147.6923,4146.6667,4141.5385,4160,4129.7436,4132.8205,4130.2564
4124.1026,4132.8205,4135.8974,4138.4615,4138.9744,4140.5128,4139.4872,4138.9744,4163.0769,4129.2308,4129.7436,4125.641
4126.1538,4132.3077,4136.4103,4144.1026,4137.9487,4140.5128,4135.8974,4138.9744,4164.1026,4128.2051,4130.7692,4127.6923
4125.641,4127.6923,4137.9487,4153.3333,4138.9744,4141.0256,4136.4103,4138.9744,4160,4128.2051,4131.2821,4132.3077
4128.2051,4123.0769,4139.4872,4155.3846,4140.5128,4141.5385,4137.9487,4138.4615,4160,4130.2564,4127.1795,4133.8462
4131.7949,4128.7179,4139.4872,4152.3077,4141.5385,4149.7436,4139.4872,4141.0256,4163.0769,4131.2821,4131.2821,4131.2821
4129.7436,4131.2821,4140,4145.1282,4140.5128,4153.8462,4141.0256,4140,4162.0513,4134.359,4135.3846,4130.7692
4126.6667,4129.7436,4139.4872,4138.9744,4138.4615,4148.2051,4138.4615,4135.8974,4158.4615,4133.3333,4127.1795,4129.7436
4124.6154,4125.641,4133.3333,4141.5385,4138.9744,4148.2051,4138.4615,4137.4359,4158.4615,4130.7692,4121.0256,4125.641
4122.5641,4122.0513,4126.6667,4144.1026,4139.4872,4152.8205,4140.5128,4138.9744,4156.4103,4130.7692,4123.0769,4121.5385
4118.9744,4126.1538,4123.0769,4137.9487,4139.4872,4150.7692,4138.9744,4135.3846,4147.6923,4126.1538,4121.5385,4120.5128
4120.5128,4131.2821,4124.6154,4136.4103,4137.9487,4149.7436,4140.5128,4136.4103,4143.0769,4122.0513,4120.5128,4124.6154
4129.2308,4133.8462,4131.2821,4145.641,4137.4359,4151.2821,4144.6154,4139.4872,4146.1538,4124.1026,4125.641,4130.7692
4133.3333,4133.8462,4137.9487,4153.3333,4137.9487,4152.3077,4141.0256,4140,4154.8718,4131.7949,4130.7692,4135.8974
4129.2308,4132.8205,4141.0256,4151.7949,4137.4359,4154.359,4134.8718,4142.5641,4157.9487,4136.9231,4130.7692,4138.9744
4123.5897,4132.8205,4137.4359,4144.6154,4136.4103,4154.359,4137.4359,4144.6154,4151.7949,4132.8205,4125.641,4132.3077
4124.6154,4133.8462,4131.2821,4141.0256,4133.8462,4147.6923,4139.4872,4141.5385,4148.7179,4127.6923,4125.641,4125.641
4130.7692,4136.9231,4132.8205,4145.641,4133.3333,4142.5641,4136.4103,4138.9744,4148.7179,4129.2308,4131.7949,4129.7436
4132.8205,4134.359,4137.9487,4153.8462,4137.9487,4144.1026,4136.9231,4140,4151.2821,4133.3333,4136.9231,4135.3846
4127.6923,4130.7692,4139.4872,4149.7436,4135.8974,4145.641,4139.4872,4140.5128,4155.8974,4137.4359,4141.0256,4135.8974
4123.5897,4131.7949,4134.359,4137.9487,4128.7179,4144.1026,4138.4615,4135.8974,4148.7179,4134.8718,4137.4359,4129.7436
4124.1026,4128.7179,4129.2308,4136.9231,4130.2564,4144.6154,4137.4359,4134.8718,4139.4872,4131.2821,4131.2821,4126.6667
4122.5641,4126.1538,4131.7949,4144.1026,4137.4359,4144.6154,4138.4615,4139.4872,4144.1026,4131.2821,4131.2821,4128.2051
4121.5385,4125.1282,4135.3846,4146.1538,4135.8974,4143.0769,4137.4359,4141.5385,4146.1538,4128.7179,4136.4103,4128.7179
4124.1026,4128.7179,4130.2564,4146.6667,4132.8205,4142.5641,4135.8974,4138.4615,4141.5385,4130.2564,4138.9744,4126.6667
4122.0513,4130.2564,4123.5897,4144.1026,4135.8974,4142.5641,4135.8974,4136.4103,4140.5128,4130.7692,4132.3077,4123.0769
4124.1026,4130.7692,4124.6154,4141.0256,4135.3846,4143.5897,4136.4103,4137.4359,4142.5641,4129.7436,4133.8462,4125.641
4128.2051,4136.9231,4127.1795,4142.5641,4133.8462,4148.2051,4136.9231,4138.9744,4138.9744,4131.7949,4140.5128,4127.1795
4124.6154,4132.3077,4125.641,4144.6154,4134.8718,4146.1538,4136.9231,4137.4359,4134.8718,4130.2564,4131.2821,4120
4121.5385,4125.1282,4127.6923,4146.6667,4135.3846,4139.4872,4135.8974,4133.8462,4140.5128,4129.7436,4123.5897,4120.5128
4124.1026,4131.7949,4128.2051,4152.8205,4135.3846,4141.5385,4135.3846,4135.3846,4147.1795,4129.2308,4133.8462,4126.1538
4126.1538,4138.4615,4125.1282,4151.7949,4136.9231,4151.7949,4137.9487,4141.0256,4146.6667,4129.7436,4145.1282,4128.7179
4125.1282,4131.7949,4129.7436,4144.6154,4138.4615,4153.8462,4140,4141.5385,4140,4131.7949,4141.5385,4130.2564
4123.5897,4124.1026,4134.359,4142.5641,4136.4103,4150.2564,4139.4872,4137.4359,4136.9231,4129.2308,4136.9231,4128.2051
4124.1026,4127.6923,4134.359,4144.1026,4134.359,4151.7949,4137.9487,4137.9487,4139.4872,4130.2564,4137.9487,4126.6667
4127.1795,4137.4359,4136.4103,4141.5385,4135.3846,4151.7949,4137.9487,4140.5128,4147.1795,4137.4359,4138.4615,4128.7179
4126.1538,4133.8462,4137.9487,4138.4615,4135.3846,4144.6154,4137.9487,4140,4148.7179,4138.9744,4137.4359,4128.7179
4124.1026,4127.1795,4135.8974,4144.6154,4132.8205,4140.5128,4136.4103,4137.9487,4147.1795,4134.359,4137.9487,4130.2564
4125.641,4132.8205,4133.3333,4150.2564,4134.359,4147.1795,4136.9231,4138.9744,4152.3077,4131.2821,4139.4872,4133.8462
4127.1795,4131.7949,4129.2308,4145.1282,4136.9231,4153.3333,4138.4615,4141.0256,4149.2308,4131.7949,4133.3333,4132.3077
4124.6154,4121.5385,4126.6667,4140,4136.4103,4151.7949,4138.9744,4141.0256,4139.4872,4130.7692,4128.7179,4125.641
4120,4122.5641,4128.7179,4138.4615,4134.8718,4151.2821,4138.9744,4140,4143.5897,4131.7949,4129.7436,4124.1026
4125.1282,4126.6667,4132.8205,4143.0769,4136.4103,4154.359,4140,4140,4153.8462,4140,4131.7949,4129.7436
4132.8205,4123.5897,4134.8718,4149.7436,4137.9487,4154.359,4141.0256,4140,4151.7949,4143.5897,4135.3846,4132.8205
4128.7179,4121.5385,4134.359,4147.6923,4135.3846,4152.8205,4140,4139.4872,4150.7692,4141.0256,4134.8718,4129.7436
4125.641,4123.5897,4132.8205,4141.5385,4135.8974,4151.7949,4138.9744,4139.4872,4151.2821,4139.4872,4128.2051,4127.6923
4137.9487,4125.641,4138.4615,4144.6154,4138.9744,4145.641,4136.9231,4143.5897,4149.7436,4143.0769,4131.7949,4138.9744
4142.5641,4130.2564,4142.0513,4143.5897,4138.4615,4142.0513,4135.3846,4146.6667,4153.3333,4145.641,4142.5641,4144.1026
4134.359,4129.2308,4135.8974,4142.0513,4137.9487,4149.2308,4136.4103,4144.6154,4155.8974,4140,4138.9744,4133.3333
4138.9744,4126.6667,4136.9231,4152.8205,4140,4154.8718,4138.4615,4141.5385,4153.3333,4138.9744,4137.4359,4136.4103
4140.5128,4132.8205,4137.4359,4152.3077,4138.4615,4150.2564,4138.4615,4140,4145.641,4137.4359,4142.0513,4141.5385
4124.6154,4133.8462,4129.7436,4138.9744,4138.4615,4148.2051,4135.3846,4134.8718,4135.3846,4129.7436,4129.7436,4130.2564
4124.1026,4128.7179,4126.6667,4138.4615,4140.5128,4153.3333,4135.8974,4135.3846,4139.4872,4130.2564,4119.4872,4125.1282
4133.8462,4126.6667,4125.641,4143.0769,4140,4154.359,4137.9487,4143.0769,4149.2308,4132.3077,4126.6667,4128.2051
4128.7179,4128.7179,4121.5385,4144.6154,4138.4615,4151.7949,4139.4872,4144.1026,4144.6154,4130.7692,4131.2821,4124.1026
4127.1795,4131.7949,4127.1795,4151.7949,4137.9487,4153.8462,4139.4872,4140.5128,4141.0256,4129.7436,4133.8462,4128.2051
4138.9744,4131.7949,4136.9231,4160,4137.4359,4154.359,4135.8974,4142.0513,4149.2308,4131.2821,4144.6154,4137.4359
4142.0513,4131.7949,4135.3846,4155.3846,4137.9487,4147.6923,4129.2308,4143.0769,4149.7436,4137.4359,4146.1538,4137.4359
4133.8462,4129.7436,4132.8205,4143.0769,4138.4615,4141.0256,4124.6154,4134.359,4136.4103,4136.4103,4137.4359,4131.7949
4128.7179,4127.6923,4133.8462,4134.8718,4137.4359,4141.5385,4128.7179,4129.2308,4134.8718,4130.7692,4136.4103,4126.6667
4124.6154,4126.6667,4129.2308,4135.8974,4137.4359,4146.6667,4134.8718,4134.8718,4144.6154,4128.2051,4132.3077,4122.0513
4122.0513,4125.1282,4124.6154,4141.0256,4137.4359,4149.7436,4136.4103,4138.9744,4136.9231,4124.1026,4123.0769,4116.9231
4121.0256,4126.1538,4126.1538,4141.5385,4135.8974,4151.7949,4135.3846,4138.4615,4124.6154,4123.5897,4122.0513,4112.8205
4118.4615,4127.6923,4122.5641,4138.9744,4134.359,4149.2308,4135.3846,4138.4615,4126.6667,4128.2051,4122.0513,4112.3077
4122.5641,4128.7179,4124.6154,4137.9487,4135.3846,4145.641,4138.4615,4140,4136.4103,4131.7949,4123.5897,4121.5385
4125.641,4125.641,4135.3846,4139.4872,4134.8718,4145.641,4138.9744,4142.0513,4140,4134.8718,4127.1795,4127.1795
4122.5641,4122.5641,4133.8462,4140.5128,4129.2308,4146.6667,4137.9487,4141.0256,4132.8205,4133.3333,4123.5897,4121.5385
4123.5897,4123.0769,4132.3077,4138.9744,4125.641,4144.1026,4136.9231,4136.9231,4132.3077,4129.7436,4121.5385,4122.5641
4127.1795,4122.5641,4137.9487,4137.9487,4130.2564,4140.5128,4134.8718,4134.359,4141.5385,4127.6923,4126.1538,4128.2051
4124.6154,4125.641,4134.8718,4138.9744,4133.3333,4142.5641,4134.8718,4135.3846,4143.5897,4129.2308,4126.1538,4125.641
4128.7179,4127.1795,4130.7692,4140,4131.7949,4147.6923,4137.4359,4135.3846,4142.0513,4130.2564,4121.5385,4122.0513
4134.8718,4124.1026,4134.8718,4139.4872,4134.359,4152.8205,4138.4615,4136.4103,4144.6154,4127.6923,4122.0513,4123.5897
4131.2821,4124.6154,4136.9231,4139.4872,4135.3846,4153.3333,4135.8974,4140,4148.2051,4129.2308,4127.1795,4127.6923
4131.7949,4131.7949,4131.7949,4139.4872,4128.2051,4149.2308,4137.9487,4141.5385,4149.7436,4131.2821,4131.7949,4128.2051
4134.359,4131.7949,4128.7179,4138.9744,4124.6154,4149.7436,4140.5128,4137.9487,4149.2308,4126.6667,4127.6923,4125.641
4132.3077,4127.6923,4127.6923,4140.5128,4130.7692,4152.3077,4136.9231,4131.2821,4146.6667,4120,4122.5641,4126.6667
4128.7179,4126.6667,4125.1282,4140.5128,4134.359,4149.2308,4135.8974,4125.1282,4145.1282,4115.3846,4122.0513,4128.2051
4128.2051,4126.6667,4125.641,4141.0256,4134.359,4144.1026,4140,4122.5641,4144.1026,4118.4615,4117.9487,4125.1282
4132.3077,4128.2051,4131.2821,4149.2308,4135.8974,4143.5897,4141.5385,4126.1538,4138.9744,4125.1282,4113.3333,4127.1795
4137.4359,4131.2821,4133.3333,4151.2821,4133.3333,4142.5641,4136.9231,4124.6154,4137.4359,4126.1538,4111.7949,4129.7436
4136.4103,4134.8718,4130.2564,4143.5897,4134.359,4141.0256,4137.9487,4124.1026,4139.4872,4126.1538,4110.7692,4126.1538
4128.7179,4132.3077,4128.2051,4139.4872,4138.4615,4149.7436,4149.2308,4132.8205,4137.9487,4126.6667,4108.7179,4120.5128
4125.1282,4125.641,4127.6923,4141.5385,4134.8718,4152.3077,4150.7692,4138.4615,4136.4103,4127.6923,4107.6923,4119.4872
4129.2308,4125.1282,4127.1795,4140.5128,4130.2564,4143.5897,4140,4136.4103,4142.5641,4128.7179,4113.8462,4124.1026
4131.2821,4131.2821,4127.6923,4137.4359,4135.3846,4141.0256,4137.4359,4134.359,4146.6667,4128.7179,4116.9231,4127.6923
4132.8205,4129.7436,4132.8205,4136.4103,4136.9231,4142.5641,4141.5385,4136.4103,4144.6154,4133.8462,4111.7949,4126.1538
4132.8205,4119.4872,4134.359,4135.3846,4126.6667,4137.4359,4140,4138.4615,4144.6154,4136.9231,4107.1795,4122.0513
4127.1795,4121.5385,4131.7949,4133.3333,4120,4133.8462,4137.9487,4139.4872,4146.1538,4133.3333,4108.7179,4121.0256
4126.1538,4129.2308,4130.7692,4137.9487,4128.2051,4136.4103,4137.9487,4138.4615,4144.6154,4131.2821,4109.7436,4123.0769
4139.4872,4129.7436,4136.4103,4149.7436,4134.359,4142.0513,4138.4615,4139.4872,4150.7692,4140.5128,4116.9231,4128.2051
4147.6923,4128.7179,4144.6154,4150.2564,4129.2308,4146.1538,4141.0256,4143.0769,4161.5385,4147.1795,4129.2308,4134.8718
4135.8974,4125.641,4136.9231,4139.4872,4122.0513,4142.5641,4138.9744,4140,4156.4103,4134.8718,4122.5641,4126.6667
4127.1795,4122.0513,4125.641,4136.4103,4122.0513,4135.3846,4134.359,4136.4103,4145.641,4127.6923,4110.2564,4117.9487
4126.1538,4122.5641,4127.6923,4136.4103,4123.0769,4133.8462,4135.8974,4137.4359,4147.6923,4133.3333,4109.7436,4120.5128
4126.1538,4126.1538,4133.8462,4134.359,4121.0256,4136.4103,4137.9487,4133.8462,4152.8205,4132.3077,4111.7949,4120
4127.1795,4127.1795,4131.7949,4138.4615,4121.5385,4137.4359,4135.8974,4126.6667,4148.7179,4128.7179,4110.2564,4117.9487
4122.5641,4123.0769,4124.6154,4138.4615,4122.5641,4131.2821,4127.6923,4123.5897,4135.3846,4124.1026,4103.5897,4111.7949
4118.4615,4121.5385,4124.6154,4128.2051,4120.5128,4126.1538,4122.5641,4123.5897,4130.2564,4121.5385,4101.5385,4105.641
4124.1026,4128.2051,4126.6667,4126.6667,4120.5128,4134.8718,4127.1795,4126.1538,4135.3846,4128.2051,4109.2308,4112.8205
4120,4131.2821,4124.1026,4128.7179,4121.5385,4138.9744,4129.7436,4125.641,4132.8205,4125.641,4108.2051,4114.359
4106.1538,4123.0769,4120,4125.1282,4120.5128,4129.2308,4122.5641,4122.0513,4125.1282,4115.8974,4094.359,4104.1026
4106.6667,4121.5385,4120,4123.0769,4121.0256,4129.2308,4119.4872,4127.1795,4122.0513,4114.359,4093.8462,4101.5385
4116.4103,4132.3077,4123.0769,4125.641,4124.1026,4137.9487,4125.1282,4131.7949,4126.1538,4120,4105.641,4109.2308
4119.4872,4134.8718,4124.6154,4129.2308,4122.5641,4138.4615,4127.1795,4124.6154,4132.8205,4126.1538,4106.6667,4112.8205
4119.4872,4126.6667,4127.1795,4133.8462,4123.0769,4135.8974,4122.5641,4124.1026,4137.4359,4125.1282,4105.1282,4109.7436
4118.9744,4129.7436,4128.7179,4138.9744,4132.3077,4138.4615,4125.1282,4136.9231,4138.9744,4124.6154,4106.6667,4107.1795
4116.4103,4134.359,4125.1282,4135.3846,4134.359,4140,4133.8462,4142.0513,4138.4615,4125.641,4101.5385,4105.641
4120,4132.3077,4121.5385,4127.6923,4131.2821,4137.4359,4132.3077,4131.2821,4134.359,4127.6923,4101.5385,4108.7179
4124.6154,4134.359,4126.6667,4130.2564,4134.8718,4134.8718,4121.0256,4121.0256,4127.6923,4127.6923,4109.2308,4115.3846
4124.1026,4139.4872,4133.3333,4138.4615,4134.8718,4136.9231,4121.0256,4121.5385,4124.6154,4126.1538,4107.6923,4118.9744
4126.1538,4140.5128,4131.7949,4140,4130.7692,4139.4872,4125.1282,4122.5641,4127.1795,4128.7179,4105.641,4119.4872
4125.1282,4136.4103,4130.2564,4137.4359,4133.3333,4137.4359,4120,4125.641,4130.2564,4127.1795,4106.1538,4114.8718
4122.5641,4136.9231,4136.4103,4140.5128,4136.9231,4142.5641,4124.1026,4134.359,4131.7949,4128.2051,4106.6667,4116.9231
4127.1795,4141.0256,4142.0513,4145.641,4137.4359,4154.8718,4137.4359,4135.3846,4135.3846,4136.4103,4109.2308,4124.6154
4126.1538,4131.7949,4136.4103,4145.1282,4138.4615,4151.7949,4135.3846,4125.641,4135.8974,4133.3333,4106.6667,4118.4615
4123.0769,4126.1538,4130.7692,4141.0256,4134.8718,4140.5128,4124.6154,4123.0769,4132.3077,4129.2308,4103.5897,4112.8205
4129.2308,4134.359,4133.3333,4140,4132.3077,4139.4872,4122.0513,4127.6923,4132.3077,4134.359,4108.7179,4118.9744
4129.7436,4138.4615,4135.3846,4139.4872,4136.4103,4141.5385,4124.6154,4126.6667,4135.8974,4133.3333,4108.2051,4117.4359
4123.5897,4132.8205,4134.359,4137.9487,4136.4103,4138.4615,4125.1282,4123.5897,4138.4615,4127.6923,4106.1538,4112.3077
4130.7692,4132.8205,4135.3846,4138.4615,4132.3077,4136.9231,4126.1538,4127.6923,4141.0256,4132.3077,4114.8718,4120
4142.0513,4137.9487,4144.6154,4140,4133.3333,4139.4872,4130.7692,4135.8974,4150.2564,4145.1282,4125.641,4129.7436
4140,4138.9744,4153.3333,4140.5128,4135.3846,4142.0513,4135.3846,4137.9487,4157.9487,4149.7436,4131.2821,4131.7949
4137.4359,4134.359,4152.8205,4143.0769,4133.3333,4143.5897,4136.4103,4134.8718,4153.8462,4149.2308,4131.7949,4132.8205
4139.4872,4130.7692,4146.6667,4142.5641,4132.8205,4143.5897,4136.9231,4134.8718,4145.641,4145.641,4126.6667,4133.3333
4135.8974,4133.3333,4141.0256,4137.4359,4134.359,4142.0513,4133.8462,4135.3846,4145.641,4139.4872,4123.5897,4129.2308
4137.4359,4140,4144.1026,4140.5128,4137.4359,4143.5897,4129.7436,4136.4103,4154.359,4141.5385,4127.6923,4130.7692
4144.1026,4139.4872,4146.1538,4140.5128,4134.359,4143.5897,4134.8718,4137.9487,4157.9487,4148.7179,4133.8462,4137.9487
4135.8974,4135.3846,4140,4128.7179,4126.1538,4140,4136.9231,4135.8974,4152.3077,4144.6154,4130.7692,4134.359
4126.6667,4135.3846,4135.3846,4128.7179,4126.1538,4137.9487,4130.7692,4135.8974,4153.3333,4138.4615,4127.6923,4127.6923
4132.8205,4135.8974,4138.4615,4138.9744,4134.359,4140,4129.7436,4138.4615,4157.9487,4137.9487,4134.8718,4129.2308
4135.8974,4134.8718,4141.5385,4138.9744,4136.4103,4140.5128,4135.3846,4138.9744,4155.3846,4142.5641,4136.9231,4131.2821
4132.8205,4136.4103,4141.0256,4136.9231,4134.359,4139.4872,4137.4359,4143.0769,4156.9231,4149.2308,4132.8205,4130.2564
4134.8718,4132.8205,4137.9487,4135.8974,4136.4103,4139.4872,4132.8205,4144.1026,4162.0513,4145.641,4134.8718,4132.3077
4129.7436,4127.6923,4133.8462,4127.1795,4134.359,4139.4872,4125.1282,4133.3333,4152.8205,4136.4103,4134.8718,4130.2564
4121.5385,4127.6923,4132.8205,4127.1795,4133.8462,4140.5128,4128.7179,4124.1026,4137.9487,4132.3077,4123.0769,4119.4872
4121.5385,4128.7179,4131.2821,4133.8462,4138.4615,4142.0513,4140,4124.6154,4136.9231,4131.2821,4112.8205,4111.7949
4117.4359,4126.1538,4122.5641,4126.1538,4134.359,4138.4615,4133.8462,4123.5897,4139.4872,4128.2051,4112.3077,4111.7949
4110.7692,4125.1282,4119.4872,4119.4872,4125.1282,4135.3846,4122.5641,4119.4872,4132.8205,4125.641,4115.8974,4113.3333
4114.8718,4130.2564,4126.6667,4123.0769,4127.1795,4138.9744,4125.641,4123.0769,4135.3846,4134.359,4120,4116.9231
4120.5128,4132.8205,4126.1538,4124.6154,4133.3333,4141.0256,4127.6923,4124.1026,4140.5128,4136.9231,4117.9487,4115.3846
4116.4103,4129.7436,4121.0256,4122.0513,4127.1795,4135.8974,4122.0513,4114.359,4130.2564,4128.2051,4115.3846,4111.2821
4116.4103,4131.7949,4126.6667,4121.5385,4121.5385,4133.3333,4120.5128,4112.8205,4128.7179,4133.8462,4124.1026,4115.8974
4127.1795,4134.359,4136.4103,4128.7179,4130.2564,4140,4130.2564,4124.6154,4142.5641,4147.1795,4134.359,4127.6923
4133.8462,4131.7949,4142.0513,4138.4615,4137.9487,4144.6154,4137.4359,4131.7949,4147.6923,4151.7949,4135.8974,4135.3846
4127.1795,4131.2821,4136.9231,4132.3077,4130.7692,4139.4872,4130.2564,4125.641,4140.5128,4143.0769,4129.7436,4127.6923
4120,4134.8718,4126.1538,4122.5641,4124.6154,4135.8974,4123.5897,4122.5641,4135.8974,4135.3846,4123.5897,4119.4872
4123.5897,4132.3077,4130.2564,4124.1026,4131.2821,4138.9744,4126.6667,4124.6154,4137.9487,4142.0513,4124.6154,4123.5897
4123.5897,4125.1282,4135.8974,4126.1538,4136.9231,4139.4872,4125.1282,4121.5385,4136.4103,4145.641,4126.1538,4123.0769
4117.4359,4129.2308,4127.6923,4123.5897,4134.8718,4137.9487,4125.1282,4122.0513,4131.7949,4139.4872,4123.5897,4116.9231
4112.3077,4133.8462,4123.0769,4124.1026,4134.8718,4138.4615,4135.8974,4132.8205,4130.2564,4138.4615,4121.5385,4112.8205
4121.5385,4130.7692,4134.8718,4130.2564,4136.4103,4141.5385,4140.5128,4140.5128,4134.8718,4148.2051,4131.7949,4120
4139.4872,4130.7692,4148.7179,4137.4359,4134.8718,4148.2051,4136.4103,4141.5385,4148.2051,4157.4359,4150.2564,4135.3846
4141.5385,4132.8205,4150.2564,4133.8462,4135.3846,4149.2308,4135.8974,4143.5897,4153.3333,4154.359,4156.4103,4140
4135.8974,4128.7179,4143.5897,4129.7436,4134.359,4139.4872,4133.8462,4141.5385,4146.6667,4148.2051,4149.2308,4135.3846
4138.9744,4129.2308,4138.4615,4133.3333,4132.8205,4134.359,4132.3077,4136.4103,4142.0513,4147.1795,4142.5641,4135.8974
4137.9487,4136.9231,4140.5128,4131.7949,4135.3846,4143.5897,4136.9231,4138.9744,4138.4615,4148.7179,4144.1026,4135.8974
4127.6923,4129.2308,4133.8462,4127.1795,4136.9231,4148.2051,4137.9487,4144.1026,4133.8462,4145.641,4144.1026,4129.2308
4121.0256,4119.4872,4122.0513,4128.2051,4136.4103,4144.6154,4137.9487,4141.5385,4132.8205,4135.3846,4136.4103,4124.1026
4120,4126.6667,4118.4615,4125.1282,4136.4103,4142.0513,4140.5128,4138.4615,4130.2564,4129.2308,4127.6923,4120.5128
4114.359,4125.1282,4111.7949,4117.9487,4135.3846,4141.0256,4140.5128,4139.4872,4121.5385,4128.2051,4121.5385,4116.9231
4105.1282,4117.4359,4106.1538,4118.9744,4135.3846,4147.1795,4139.4872,4138.4615,4118.4615,4121.5385,4118.9744,4112.3077
4105.641,4121.0256,4110.7692,4121.0256,4137.4359,4152.8205,4140,4135.8974,4123.5897,4120,4121.5385,4111.2821
4114.8718,4124.6154,4118.4615,4120.5128,4136.4103,4146.6667,4137.4359,4136.4103,4126.6667,4126.1538,4124.1026,4116.4103
4113.8462,4120.5128,4120.5128,4118.4615,4135.8974,4137.4359,4133.8462,4135.3846,4123.0769,4130.2564,4118.9744,4115.3846
4113.8462,4124.1026,4120.5128,4118.9744,4138.9744,4136.4103,4130.7692,4135.3846,4120.5128,4132.8205,4116.4103,4114.8718
4123.0769,4128.7179,4122.5641,4122.0513,4140,4138.9744,4128.2051,4139.4872,4126.1538,4135.3846,4125.641,4120
4120,4125.1282,4123.5897,4118.9744,4136.4103,4137.4359,4125.641,4136.4103,4125.1282,4132.3077,4124.1026,4115.8974
4110.7692,4126.6667,4123.5897,4115.8974,4133.3333,4136.4103,4123.0769,4128.2051,4115.8974,4126.1538,4113.8462,4107.6923
4119.4872,4130.7692,4127.1795,4123.5897,4136.9231,4139.4872,4126.1538,4133.3333,4121.0256,4132.8205,4122.5641,4120
4127.6923,4130.2564,4129.7436,4127.1795,4139.4872,4143.0769,4133.8462,4137.4359,4132.3077,4139.4872,4131.7949,4131.2821
4122.0513,4129.2308,4124.1026,4121.5385,4137.4359,4142.0513,4136.9231,4126.6667,4122.0513,4131.7949,4121.0256,4120
4121.0256,4128.7179,4122.0513,4122.5641,4137.4359,4142.0513,4134.8718,4121.5385,4111.7949,4130.7692,4119.4872,4116.9231
4123.5897,4124.1026,4125.641,4127.6923,4138.9744,4144.6154,4137.4359,4126.6667,4118.9744,4133.3333,4122.5641,4122.0513
4122.0513,4128.2051,4124.1026,4124.6154,4137.4359,4141.5385,4134.8718,4125.641,4119.4872,4129.2308,4111.2821,4119.4872
4125.1282,4138.9744,4122.5641,4120.5128,4135.8974,4136.4103,4128.7179,4121.0256,4114.359,4128.2051,4110.2564,4118.4615
4126.1538,4132.8205,4124.1026,4125.1282,4136.9231,4138.4615,4131.2821,4123.5897,4116.4103,4134.359,4121.5385,4122.0513
4125.641,4127.1795,4127.1795,4134.8718,4137.4359,4140.5128,4137.9487,4131.7949,4124.6154,4142.0513,4126.1538,4126.6667
4133.3333,4137.9487,4131.7949,4135.8974,4138.4615,4140.5128,4139.4872,4139.4872,4129.2308,4142.5641,4129.2308,4130.2564
4133.3333,4136.4103,4127.1795,4127.1795,4137.9487,4140.5128,4135.3846,4138.9744,4118.4615,4134.359,4127.6923,4124.6154
4123.5897,4126.1538,4116.9231,4122.0513,4134.8718,4136.4103,4129.2308,4131.7949,4112.3077,4126.6667,4120.5128,4116.9231
4120,4128.2051,4116.9231,4120.5128,4134.359,4135.3846,4131.7949,4134.359,4122.5641,4128.2051,4126.6667,4117.9487
4127.1795,4133.3333,4126.1538,4120,4136.9231,4143.0769,4141.5385,4142.0513,4132.3077,4136.4103,4142.0513,4127.1795
4133.8462,4132.8205,4129.2308,4124.6154,4138.9744,4146.1538,4142.0513,4141.0256,4127.1795,4137.9487,4142.0513,4132.3077
4132.3077,4131.2821,4124.1026,4125.641,4138.4615,4140,4136.4103,4134.8718,4114.359,4130.2564,4126.6667,4127.6923
4130.7692,4130.2564,4125.641,4121.5385,4137.4359,4136.9231,4136.9231,4133.3333,4113.3333,4130.7692,4121.0256,4127.1795
4135.3846,4132.3077,4134.359,4125.1282,4138.9744,4137.9487,4138.4615,4136.4103,4126.1538,4138.4615,4132.3077,4133.8462
4141.0256,4135.3846,4137.9487,4130.7692,4139.4872,4138.4615,4137.4359,4141.5385,4138.4615,4144.6154,4142.5641,4139.4872
4137.9487,4133.3333,4134.359,4127.6923,4135.8974,4137.4359,4137.9487,4141.5385,4137.4359,4147.1795,4141.5385,4135.8974
4134.8718,4134.8718,4134.8718,4122.5641,4133.3333,4135.8974,4136.9231,4136.4103,4134.8718,4145.1282,4136.4103,4132.8205
4138.4615,4141.0256,4140,4126.1538,4136.4103,4135.8974,4135.8974,4137.4359,4141.5385,4146.6667,4142.5641,4137.4359
4139.4872,4137.4359,4141.0256,4131.7949,4139.4872,4138.4615,4136.4103,4141.0256,4142.0513,4148.7179,4148.7179,4137.9487
4140,4136.9231,4141.5385,4131.7949,4138.9744,4137.9487,4136.9231,4135.8974,4137.9487,4148.7179,4144.1026,4137.4359
4139.4872,4140,4142.0513,4128.2051,4134.359,4135.3846,4136.4103,4126.6667,4137.4359,4148.2051,4136.9231,4136.9231
4132.3077,4132.3077,4133.3333,4125.641,4132.3077,4134.8718,4135.3846,4123.5897,4131.7949,4140,4131.2821,4130.7692
4125.641,4127.6923,4125.1282,4124.6154,4132.8205,4138.4615,4137.9487,4124.1026,4130.2564,4132.3077,4125.641,4129.2308
4123.5897,4129.2308,4125.1282,4123.0769,4133.3333,4137.9487,4138.4615,4122.5641,4131.2821,4131.2821,4124.1026,4131.2821
4121.5385,4127.1795,4126.6667,4122.0513,4132.8205,4130.7692,4131.7949,4119.4872,4125.641,4135.8974,4121.0256,4127.1795
4129.2308,4127.1795,4132.8205,4130.2564,4131.7949,4131.2821,4130.7692,4121.0256,4128.7179,4144.1026,4121.5385,4129.7436
4143.5897,4132.8205,4141.0256,4137.9487,4134.359,4140,4136.4103,4126.1538,4141.0256,4149.2308,4136.9231,4142.0513
4144.6154,4133.8462,4144.1026,4133.8462,4137.4359,4141.5385,4132.8205,4124.6154,4142.5641,4149.7436,4145.641,4143.5897
4135.8974,4130.2564,4138.9744,4132.3077,4135.3846,4136.4103,4123.0769,4114.8718,4130.7692,4146.6667,4132.3077,4133.3333
4126.1538,4130.2564,4132.3077,4134.8718,4132.8205,4134.8718,4120.5128,4110.2564,4123.5897,4142.0513,4120.5128,4125.641
4123.0769,4132.3077,4131.7949,4129.7436,4131.7949,4137.9487,4125.641,4117.9487,4126.1538,4137.4359,4122.5641,4125.641
4126.6667,4135.8974,4132.3077,4124.6154,4132.3077,4138.4615,4128.7179,4124.6154,4134.8718,4136.9231,4127.6923,4127.6923
4130.2564,4139.4872,4128.2051,4127.6923,4130.7692,4136.9231,4126.6667,4124.1026,4139.4872,4143.0769,4131.2821,4132.3077
4128.7179,4135.8974,4123.5897,4127.6923,4128.2051,4136.9231,4121.5385,4117.4359,4133.8462,4138.4615,4127.1795,4132.8205
4127.6923,4129.7436,4123.5897,4126.6667,4129.7436,4137.4359,4124.6154,4112.3077,4127.6923,4129.2308,4120.5128,4131.7949
4128.7179,4128.2051,4126.6667,4127.1795,4136.4103,4138.4615,4133.8462,4118.4615,4128.7179,4130.7692,4121.0256,4132.3077
4130.7692,4131.7949,4127.1795,4125.1282,4134.8718,4136.9231,4133.3333,4121.0256,4130.7692,4133.3333,4122.5641,4130.7692
4136.4103,4133.8462,4129.2308,4124.6154,4129.7436,4128.7179,4124.1026,4113.8462,4134.8718,4135.8974,4127.1795,4136.9231
4139.4872,4133.3333,4133.8462,4125.641,4133.3333,4128.7179,4122.0513,4115.3846,4140,4142.0513,4136.9231,4144.1026
4132.8205,4136.9231,4133.3333,4126.6667,4136.4103,4138.9744,4126.6667,4124.1026,4138.4615,4145.641,4140.5128,4138.4615
4128.2051,4136.4103,4127.6923,4124.1026,4129.2308,4135.3846,4123.5897,4121.0256,4131.7949,4141.0256,4136.4103,4130.2564
4132.3077,4134.8718,4127.6923,4124.1026,4126.6667,4124.1026,4120,4117.9487,4129.2308,4135.8974,4135.8974,4133.8462
4138.9744,4138.9744,4137.4359,4129.2308,4134.359,4129.2308,4124.6154,4123.5897,4134.359,4141.5385,4141.5385,4142.0513
4137.4359,4131.7949,4138.4615,4128.7179,4138.4615,4138.9744,4126.6667,4124.1026,4135.3846,4143.5897,4142.0513,4137.4359
4132.3077,4123.5897,4130.7692,4127.1795,4136.9231,4134.359,4123.0769,4121.5385,4130.2564,4135.8974,4136.9231,4130.7692
4129.7436,4131.7949,4126.6667,4128.2051,4135.3846,4127.6923,4122.5641,4122.5641,4127.6923,4131.2821,4132.3077,4131.7949
4125.641,4133.3333,4125.1282,4125.1282,4129.7436,4128.7179,4123.5897,4120,4121.5385,4128.2051,4125.1282,4128.7179
4122.0513,4127.1795,4125.1282,4122.0513,4125.1282,4127.6923,4121.5385,4117.4359,4116.9231,4128.2051,4119.4872,4122.5641
4126.6667,4132.3077,4131.2821,4124.1026,4126.1538,4127.1795,4121.5385,4120.5128,4124.1026,4131.2821,4128.7179,4128.7179
4132.3077,4139.4872,4134.8718,4124.1026,4127.6923,4132.8205,4125.1282,4124.1026,4131.7949,4132.3077,4133.8462,4135.3846
4127.6923,4135.8974,4129.7436,4120,4125.641,4134.359,4126.1538,4124.1026,4125.1282,4131.7949,4124.1026,4129.7436
4122.5641,4133.3333,4126.6667,4121.0256,4124.6154,4132.3077,4125.641,4126.6667,4116.9231,4132.8205,4124.6154,4124.6154
4123.0769,4133.8462,4126.6667,4121.5385,4128.7179,4131.7949,4124.1026,4129.7436,4122.5641,4131.7949,4129.2308,4126.1538
4126.1538,4134.359,4129.2308,4123.0769,4134.359,4132.8205,4124.6154,4124.1026,4129.2308,4130.7692,4126.6667,4129.2308
4133.3333,4137.9487,4133.8462,4125.641,4138.4615,4135.8974,4130.7692,4123.5897,4128.7179,4137.9487,4130.7692,4133.3333
4134.8718,4134.359,4133.3333,4127.6923,4137.9487,4141.0256,4132.3077,4133.8462,4128.7179,4142.0513,4136.4103,4135.3846
4128.7179,4128.7179,4129.7436,4132.8205,4136.9231,4134.8718,4123.0769,4131.2821,4121.0256,4134.8718,4127.1795,4127.6923
4130.7692,4133.3333,4131.7949,4134.359,4133.8462,4126.1538,4117.9487,4124.6154,4109.2308,4133.3333,4122.0513,4123.0769
4133.8462,4140.5128,4129.2308,4128.2051,4130.7692,4130.7692,4121.0256,4128.7179,4110.7692,4136.9231,4124.6154,4128.2051
4124.6154,4133.8462,4121.5385,4120.5128,4134.359,4138.4615,4123.0769,4131.7949,4115.3846,4131.2821,4122.0513,4129.2308
4126.1538,4128.7179,4128.7179,4124.6154,4138.4615,4139.4872,4126.1538,4129.7436,4114.359,4133.3333,4126.6667,4129.7436
4137.9487,4133.8462,4138.4615,4134.8718,4138.4615,4138.4615,4132.3077,4133.8462,4117.9487,4140,4136.4103,4135.3846
4137.4359,4137.4359,4135.8974,4134.359,4137.9487,4143.0769,4137.9487,4139.4872,4125.1282,4140.5128,4138.9744,4138.4615
4132.8205,4137.9487,4133.8462,4126.6667,4140,4147.6923,4140,4141.0256,4125.1282,4140.5128,4137.9487,4135.8974
4132.8205,4133.3333,4134.8718,4124.6154,4140.5128,4143.5897,4136.4103,4140.5128,4118.9744,4135.3846,4135.8974,4133.3333
4134.359,4127.6923,4130.2564,4126.1538,4139.4872,4140,4130.2564,4137.4359,4115.3846,4129.2308,4130.7692,4136.4103
4127.6923,4124.6154,4122.0513,4120.5128,4137.9487,4138.9744,4126.1538,4135.3846,4108.2051,4127.1795,4122.0513,4131.2821
4116.9231,4124.1026,4121.5385,4116.9231,4134.8718,4139.4872,4129.7436,4136.4103,4101.5385,4123.5897,4118.4615,4121.5385
4115.8974,4124.6154,4121.5385,4121.0256,4135.8974,4140.5128,4135.3846,4135.3846,4103.0769,4118.9744,4121.0256,4117.9487
4119.4872,4124.6154,4118.4615,4121.5385,4138.9744,4139.4872,4131.7949,4135.3846,4105.641,4116.4103,4120.5128,4119.4872
4115.8974,4125.1282,4120.5128,4113.3333,4136.9231,4137.4359,4129.2308,4136.4103,4098.9744,4116.4103,4113.8462,4120.5128
4110.2564,4123.0769,4120,4111.2821,4134.359,4138.9744,4134.359,4135.3846,4090.2564,4113.8462,4110.7692,4115.3846
4117.9487,4121.5385,4118.4615,4121.0256,4138.4615,4144.1026,4140,4142.0513,4096.4103,4117.9487,4118.4615,4117.4359
4130.7692,4128.7179,4130.7692,4128.7179,4138.9744,4145.1282,4140,4152.3077,4113.8462,4131.2821,4133.3333,4132.3077
4134.359,4133.8462,4138.9744,4123.5897,4134.359,4139.4872,4138.9744,4148.7179,4118.9744,4134.8718,4138.4615,4136.9231
4135.8974,4128.2051,4134.359,4120.5128,4135.8974,4137.9487,4137.4359,4140,4113.3333,4137.9487,4136.4103,4133.3333
4138.4615,4123.5897,4133.8462,4125.1282,4141.0256,4141.0256,4136.9231,4141.0256,4110.2564,4145.1282,4138.4615,4136.9231
4133.3333,4125.641,4133.8462,4125.641,4139.4872,4141.5385,4138.4615,4143.5897,4110.7692,4141.0256,4135.3846,4135.3846
4130.7692,4130.2564,4132.3077,4125.1282,4135.8974,4141.5385,4137.9487,4142.0513,4110.7692,4137.9487,4134.359,4130.7692
4133.8462,4129.7436,4131.7949,4128.7179,4139.4872,4145.1282,4138.9744,4139.4872,4108.7179,4142.0513,4137.9487,4130.7692
4130.2564,4129.7436,4127.6923,4131.7949,4142.0513,4143.0769,4135.3846,4135.8974,4109.2308,4136.9231,4133.3333,4129.7436
4128.2051,4133.8462,4127.6923,4128.7179,4137.4359,4136.4103,4128.2051,4134.359,4110.2564,4129.2308,4129.2308,4129.2308
4130.2564,4132.8205,4131.2821,4123.0769,4134.359,4134.8718,4123.5897,4135.8974,4108.2051,4131.2821,4132.8205,4131.2821
4128.2051,4131.2821,4131.7949,4121.0256,4135.8974,4135.8974,4125.641,4136.4103,4107.1795,4136.9231,4133.8462,4129.7436
4129.2308,4133.8462,4132.3077,4122.0513,4136.4103,4135.8974,4134.8718,4138.4615,4107.1795,4137.9487,4132.8205,4126.6667
4134.8718,4133.8462,4134.8718,4122.0513,4134.8718,4137.4359,4139.4872,4138.9744,4109.7436,4141.5385,4136.9231,4130.7692
4137.4359,4133.8462,4135.8974,4125.641,4136.4103,4143.0769,4137.9487,4141.0256,4117.9487,4147.6923,4140.5128,4138.4615
4137.9487,4138.9744,4137.4359,4130.2564,4138.4615,4147.6923,4136.9231,4143.5897,4122.5641,4149.7436,4140.5128,4137.9487
4135.3846,4136.4103,4135.8974,4128.7179,4136.9231,4146.1538,4137.9487,4142.0513,4117.9487,4149.2308,4135.8974,4130.7692
4130.2564,4129.7436,4131.7949,4125.641,4134.8718,4143.0769,4136.9231,4138.4615,4110.7692,4143.5897,4125.641,4127.6923
4133.8462,4135.3846,4132.8205,4125.1282,4134.8718,4140.5128,4134.8718,4136.4103,4110.2564,4143.0769,4125.1282,4131.2821
4140.5128,4141.5385,4135.3846,4125.641,4135.8974,4142.0513,4138.4615,4142.5641,4116.4103,4147.1795,4134.359,4133.8462
4137.4359,4135.8974,4133.3333,4127.1795,4135.8974,4146.6667,4140.5128,4144.1026,4115.8974,4143.0769,4134.8718,4133.3333
4128.2051,4132.3077,4127.1795,4125.1282,4135.3846,4143.0769,4137.4359,4128.2051,4104.6154,4134.359,4120,4128.7179
4122.0513,4136.4103,4118.4615,4120,4133.8462,4136.9231,4133.8462,4116.9231,4096.4103,4127.1795,4103.5897,4118.4615
4123.5897,4133.8462,4121.0256,4121.0256,4131.7949,4138.4615,4136.9231,4123.5897,4105.1282,4128.7179,4105.1282,4116.9231
4124.6154,4126.1538,4129.7436,4124.6154,4128.2051,4138.9744,4140,4126.6667,4114.359,4133.3333,4110.7692,4121.5385
4122.0513,4122.5641,4131.2821,4122.5641,4126.6667,4139.4872,4138.4615,4127.1795,4110.7692,4133.3333,4106.6667,4122.0513
4130.2564,4129.2308,4138.4615,4126.1538,4132.3077,4148.2051,4140,4136.4103,4116.4103,4138.4615,4112.8205,4131.7949
4133.3333,4134.359,4139.4872,4126.6667,4137.9487,4148.7179,4142.5641,4135.3846,4122.5641,4140,4121.5385,4134.8718
4115.3846,4126.6667,4126.1538,4114.8718,4132.3077,4136.9231,4138.4615,4124.1026,4113.3333,4126.1538,4109.7436,4120
4112.8205,4125.641,4124.1026,4111.7949,4123.5897,4133.8462,4134.8718,4126.6667,4110.2564,4123.5897,4102.5641,4119.4872
4130.7692,4132.3077,4136.9231,4123.5897,4127.1795,4139.4872,4137.4359,4137.9487,4119.4872,4136.9231,4113.3333,4133.8462
4136.9231,4132.3077,4140.5128,4127.1795,4133.8462,4139.4872,4140,4139.4872,4118.9744,4140.5128,4117.9487,4137.9487
4132.8205,4128.7179,4134.359,4123.0769,4133.3333,4136.9231,4136.4103,4135.8974,4114.8718,4133.3333,4116.4103,4133.8462
4131.7949,4130.2564,4135.8974,4126.6667,4132.3077,4140,4136.4103,4135.8974,4120,4134.359,4116.4103,4133.3333
4131.7949,4130.7692,4138.4615,4128.2051,4133.3333,4142.0513,4140.5128,4136.4103,4116.9231,4136.9231,4115.8974,4132.8205
4132.8205,4128.2051,4138.4615,4124.1026,4132.8205,4143.0769,4142.0513,4135.3846,4111.7949,4133.8462,4117.9487,4132.3077
4138.9744,4132.8205,4141.0256,4127.1795,4135.3846,4150.2564,4143.5897,4135.3846,4124.1026,4139.4872,4123.0769,4139.4872
4140.5128,4135.8974,4144.1026,4130.2564,4136.4103,4151.7949,4143.0769,4138.4615,4132.3077,4146.1538,4125.641,4142.0513
4136.4103,4128.7179,4142.0513,4125.641,4129.7436,4145.1282,4142.0513,4140.5128,4125.1282,4138.9744,4120,4135.8974
4134.8718,4125.641,4138.9744,4122.5641,4127.1795,4142.0513,4145.641,4138.9744,4123.5897,4133.8462,4113.8462,4130.2564
4135.3846,4132.8205,4138.4615,4129.2308,4133.8462,4144.1026,4144.6154,4138.4615,4133.3333,4139.4872,4116.9231,4133.3333
4142.0513,4136.9231,4143.0769,4138.4615,4137.9487,4143.0769,4138.9744,4139.4872,4137.4359,4147.6923,4125.1282,4141.0256
4145.1282,4133.8462,4147.6923,4136.4103,4137.4359,4140.5128,4137.4359,4140.5128,4128.7179,4146.6667,4125.1282,4142.0513
4134.8718,4129.2308,4140.5128,4125.641,4133.8462,4139.4872,4138.9744,4135.8974,4123.0769,4136.9231,4116.4103,4131.7949
4124.6154,4127.6923,4132.3077,4121.5385,4126.1538,4135.8974,4135.8974,4126.1538,4124.1026,4131.7949,4106.1538,4128.2051
4125.641,4127.6923,4131.2821,4123.5897,4123.5897,4134.8718,4134.359,4122.5641,4120.5128,4128.7179,4105.641,4130.7692
4128.7179,4130.2564,4130.2564,4124.6154,4131.2821,4137.9487,4136.9231,4125.641,4114.8718,4125.641,4111.7949,4130.2564
4128.2051,4130.2564,4126.1538,4125.641,4132.8205,4139.4872,4135.8974,4126.1538,4115.3846,4126.6667,4108.7179,4128.2051
4127.1795,4126.6667,4123.5897,4126.1538,4125.641,4137.9487,4134.8718,4127.6923,4117.9487,4128.2051,4102.5641,4127.1795
4127.6923,4128.2051,4128.2051,4122.5641,4128.2051,4136.9231,4137.4359,4137.9487,4122.5641,4129.7436,4109.2308,4128.7179
4129.7436,4129.7436,4132.8205,4122.5641,4137.4359,4140,4141.0256,4143.5897,4125.641,4130.7692,4114.359,4130.7692
4129.2308,4126.1538,4131.2821,4125.641,4133.8462,4139.4872,4137.9487,4133.3333,4117.9487,4132.3077,4109.2308,4129.2308
4124.1026,4126.6667,4128.2051,4118.4615,4126.1538,4134.8718,4133.8462,4120.5128,4111.2821,4130.7692,4103.5897,4126.1538
4122.0513,4129.7436,4128.2051,4112.3077,4126.1538,4136.4103,4136.4103,4123.0769,4116.4103,4127.6923,4104.6154,4127.1795
4129.2308,4132.8205,4132.3077,4120,4130.2564,4142.5641,4140,4131.2821,4125.1282,4133.8462,4115.3846,4131.7949
4135.8974,4130.7692,4135.3846,4125.641,4132.8205,4141.0256,4139.4872,4130.2564,4126.1538,4140.5128,4123.0769,4132.8205
4134.8718,4126.6667,4133.3333,4121.0256,4131.7949,4137.4359,4138.9744,4128.7179,4124.1026,4139.4872,4116.9231,4132.3077
4128.2051,4124.1026,4130.2564,4118.4615,4124.6154,4134.8718,4134.8718,4128.7179,4122.0513,4133.8462,4107.6923,4132.3077
4120,4122.0513,4127.6923,4119.4872,4118.9744,4127.6923,4126.1538,4120.5128,4115.8974,4128.2051,4105.641,4127.1795
4122.5641,4123.0769,4130.2564,4121.0256,4122.5641,4127.6923,4126.6667,4127.1795,4120.5128,4136.4103,4112.3077,4129.2308
4132.8205,4128.7179,4135.8974,4124.6154,4124.1026,4134.359,4129.2308,4139.4872,4131.2821,4144.6154,4117.9487,4136.4103
4135.8974,4131.2821,4134.8718,4123.0769,4122.0513,4134.8718,4125.1282,4132.3077,4131.7949,4137.9487,4120,4135.8974
4131.2821,4131.2821,4130.7692,4120,4124.6154,4134.8718,4130.2564,4129.2308,4129.7436,4136.4103,4122.5641,4132.8205
4126.1538,4128.7179,4129.7436,4122.0513,4128.2051,4139.4872,4137.4359,4137.4359,4132.8205,4139.4872,4121.0256,4129.7436
4124.1026,4127.1795,4128.2051,4124.1026,4126.1538,4134.8718,4127.6923,4129.2308,4129.7436,4130.2564,4112.8205,4123.0769
4123.0769,4128.2051,4123.5897,4123.0769,4122.5641,4128.2051,4121.5385,4117.4359,4117.9487,4122.5641,4111.2821,4117.9487
4123.5897,4128.2051,4125.641,4123.0769,4123.5897,4135.3846,4127.6923,4124.1026,4113.8462,4131.2821,4121.5385,4124.1026
4125.641,4127.1795,4131.2821,4125.1282,4124.6154,4136.4103,4125.641,4127.6923,4121.0256,4137.9487,4123.5897,4130.7692
4123.0769,4126.6667,4128.2051,4123.0769,4122.5641,4126.1538,4121.5385,4119.4872,4116.9231,4130.7692,4116.9231,4126.6667
4120.5128,4128.2051,4127.6923,4124.1026,4120.5128,4126.6667,4125.1282,4123.0769,4111.2821,4130.2564,4120,4124.1026
4127.6923,4131.2821,4133.8462,4134.359,4127.1795,4136.9231,4127.1795,4133.8462,4116.9231,4139.4872,4123.0769,4129.2308
4138.9744,4132.3077,4140.5128,4138.4615,4132.3077,4138.9744,4128.2051,4135.8974,4123.5897,4143.5897,4124.1026,4137.9487
4136.4103,4133.3333,4142.0513,4128.7179,4129.7436,4132.3077,4126.1538,4134.359,4122.5641,4142.5641,4125.641,4137.9487
4122.5641,4128.7179,4135.3846,4119.4872,4126.1538,4128.7179,4121.5385,4132.3077,4118.9744,4138.4615,4118.9744,4128.2051
4119.4872,4127.6923,4126.6667,4116.9231,4126.6667,4132.3077,4127.1795,4126.6667,4116.4103,4137.4359,4112.3077,4124.1026
4128.7179,4131.2821,4126.6667,4117.9487,4129.7436,4136.9231,4136.9231,4127.6923,4116.9231,4138.9744,4116.9231,4129.2308
4135.3846,4130.7692,4136.9231,4124.1026,4133.8462,4137.4359,4137.4359,4137.4359,4123.0769,4141.0256,4129.7436,4137.4359
4136.4103,4130.7692,4141.5385,4126.1538,4136.9231,4137.9487,4136.4103,4140.5128,4127.1795,4146.1538,4138.4615,4142.5641
4135.8974,4129.7436,4138.9744,4122.5641,4134.8718,4138.4615,4140.5128,4139.4872,4124.6154,4145.641,4132.8205,4141.0256
4140.5128,4129.2308,4141.0256,4126.6667,4132.3077,4137.4359,4138.9744,4141.5385,4125.641,4146.1538,4126.1538,4142.0513
4140,4131.7949,4141.5385,4128.2051,4133.3333,4137.9487,4135.3846,4138.9744,4128.7179,4145.1282,4131.7949,4141.5385
4129.7436,4130.7692,4132.8205,4122.5641,4131.2821,4138.9744,4136.4103,4136.4103,4123.5897,4140,4133.3333,4135.8974
4132.3077,4132.3077,4133.8462,4122.5641,4127.6923,4136.9231,4131.7949,4134.8718,4117.4359,4142.5641,4127.6923,4138.4615
4134.8718,4132.3077,4134.359,4124.1026,4124.6154,4135.3846,4124.6154,4130.2564,4114.359,4138.4615,4125.641,4136.4103
4123.0769,4128.2051,4126.1538,4120,4124.1026,4132.8205,4123.5897,4126.6667,4113.8462,4131.7949,4124.6154,4126.6667
4127.1795,4128.7179,4127.6923,4119.4872,4129.2308,4129.2308,4127.6923,4129.2308,4117.9487,4136.4103,4131.2821,4130.2564
4136.9231,4131.2821,4132.8205,4122.5641,4130.7692,4132.3077,4130.2564,4136.4103,4117.9487,4143.0769,4142.0513,4136.9231
4129.7436,4132.3077,4130.7692,4122.5641,4128.7179,4136.4103,4126.6667,4133.8462,4111.2821,4139.4872,4137.9487,4132.8205
4125.1282,4129.7436,4128.2051,4123.5897,4131.2821,4134.8718,4123.0769,4124.1026,4107.1795,4132.3077,4126.6667,4130.7692
4131.2821,4128.7179,4129.2308,4124.1026,4133.3333,4132.8205,4124.6154,4121.5385,4107.1795,4131.7949,4125.1282,4134.8718
4130.7692,4129.7436,4128.2051,4123.0769,4130.7692,4132.8205,4124.6154,4124.6154,4111.2821,4135.3846,4129.2308,4132.8205
4132.3077,4132.3077,4133.3333,4122.5641,4132.3077,4133.8462,4122.0513,4127.1795,4118.9744,4141.0256,4132.8205,4133.8462
4142.0513,4135.8974,4144.1026,4127.1795,4135.8974,4136.4103,4125.641,4129.2308,4121.5385,4146.6667,4135.8974,4145.1282
4136.9231,4132.8205,4136.9231,4125.1282,4132.3077,4137.9487,4129.2308,4125.1282,4110.2564,4137.9487,4128.7179,4142.0513
4123.5897,4129.2308,4123.5897,4112.3077,4129.7436,4136.4103,4125.641,4122.0513,4103.0769,4130.2564,4117.9487,4124.1026
4125.641,4132.8205,4128.7179,4111.7949,4130.2564,4135.8974,4122.5641,4129.7436,4110.7692,4140,4123.0769,4128.2051
4137.9487,4131.7949,4138.9744,4124.6154,4127.6923,4135.8974,4123.0769,4138.9744,4122.0513,4149.2308,4138.9744,4147.6923
4144.1026,4131.2821,4140,4128.2051,4127.6923,4134.8718,4123.0769,4141.0256,4127.1795,4151.2821,4145.1282,4149.7436
4139.4872,4133.3333,4136.4103,4122.0513,4132.3077,4135.8974,4124.1026,4140,4126.6667,4148.2051,4141.0256,4138.4615
4132.3077,4130.7692,4132.3077,4115.8974,4131.7949,4135.8974,4124.6154,4138.9744,4124.1026,4140,4138.4615,4134.8718
4129.2308,4128.2051,4129.7436,4113.8462,4125.641,4134.8718,4123.5897,4138.4615,4122.0513,4132.3077,4136.4103,4136.4103
4131.7949,4129.7436,4129.2308,4115.3846,4123.0769,4135.3846,4123.5897,4140,4120.5128,4131.7949,4132.8205,4135.3846
4130.2564,4131.7949,4129.2308,4115.8974,4127.6923,4136.9231,4129.7436,4140.5128,4116.4103,4136.4103,4133.3333,4136.9231
4123.0769,4128.7179,4127.1795,4109.7436,4127.6923,4137.4359,4133.3333,4137.4359,4110.7692,4136.4103,4125.641,4136.4103
4121.5385,4123.0769,4123.0769,4105.641,4123.5897,4134.8718,4127.1795,4135.8974,4109.7436,4132.8205,4107.1795,4128.2051
4124.6154,4124.6154,4126.1538,4108.2051,4124.6154,4132.8205,4120.5128,4135.8974,4112.3077,4133.3333,4103.5897,4128.2051
4125.641,4128.7179,4130.2564,4110.7692,4126.6667,4134.359,4122.0513,4135.8974,4113.3333,4134.8718,4123.0769,4132.3077
4124.1026,4126.6667,4126.1538,4109.7436,4126.1538,4135.3846,4123.5897,4137.4359,4111.7949,4133.8462,4130.2564,4128.7179
4119.4872,4120,4117.9487,4106.1538,4126.1538,4134.8718,4122.0513,4136.4103,4106.6667,4127.6923,4118.4615,4118.9744
4113.3333,4117.9487,4113.8462,4104.6154,4128.7179,4136.4103,4123.0769,4132.3077,4101.5385,4120,4110.7692,4113.3333
4109.2308,4122.0513,4115.3846,4105.641,4126.6667,4135.8974,4124.6154,4131.7949,4102.5641,4118.9744,4102.0513,4116.4103
4107.6923,4122.5641,4115.3846,4104.6154,4124.6154,4134.359,4129.7436,4134.8718,4105.1282,4117.9487,4097.9487,4118.9744
4109.7436,4125.641,4113.8462,4104.6154,4131.2821,4137.9487,4136.9231,4137.9487,4107.1795,4122.0513,4102.0513,4117.9487
4109.7436,4130.7692,4113.8462,4107.1795,4131.2821,4138.9744,4136.4103,4140,4110.7692,4130.7692,4097.9487,4116.4103
4102.5641,4126.1538,4114.8718,4106.1538,4124.1026,4132.8205,4129.7436,4134.8718,4105.1282,4128.7179,4087.6923,4112.3077
4094.8718,4121.0256,4111.2821,4099.4872,4121.5385,4125.641,4124.1026,4123.5897,4094.359,4118.4615,4078.9744,4104.6154
4096.4103,4123.0769,4106.6667,4098.4615,4123.0769,4127.1795,4127.1795,4124.6154,4090.2564,4113.8462,4073.8462,4098.9744
4105.1282,4128.2051,4111.2821,4104.1026,4125.641,4135.3846,4136.4103,4136.9231,4097.4359,4121.5385,4076.4103,4106.6667
4108.7179,4130.7692,4117.9487,4106.6667,4126.6667,4138.9744,4138.9744,4140.5128,4105.641,4127.1795,4078.4615,4111.7949
4102.0513,4127.6923,4114.8718,4103.5897,4124.1026,4134.8718,4137.9487,4136.9231,4102.5641,4118.9744,4065.641,4107.1795
4097.9487,4126.1538,4114.359,4101.0256,4123.0769,4129.2308,4136.9231,4137.9487,4100.5128,4118.4615,4057.9487,4107.1795
4114.359,4126.6667,4126.6667,4109.2308,4124.1026,4129.7436,4140.5128,4125.641,4117.4359,4130.7692,4074.359,4117.9487
4120,4128.2051,4133.8462,4111.2821,4126.1538,4137.9487,4143.5897,4134.8718,4123.5897,4141.5385,4082.5641,4127.6923
4121.0256,4130.7692,4135.3846,4112.8205,4125.1282,4140,4142.0513,4142.5641,4123.5897,4141.5385,4089.7436,4127.6923
4114.8718,4125.641,4128.2051,4110.2564,4121.0256,4136.4103,4137.9487,4137.9487,4116.4103,4130.7692,4083.5897,4120
4107.6923,4120.5128,4121.0256,4105.1282,4120.5128,4132.3077,4135.3846,4131.7949,4110.2564,4126.6667,4073.8462,4116.9231
4107.1795,4124.6154,4120.5128,4103.5897,4123.0769,4131.2821,4137.4359,4134.359,4113.8462,4128.2051,4078.9744,4119.4872
4111.7949,4127.1795,4128.2051,4111.2821,4125.641,4134.8718,4138.9744,4140.5128,4122.0513,4135.3846,4092.8205,4125.641
4115.8974,4120.5128,4134.8718,4121.5385,4126.6667,4137.9487,4137.9487,4140.5128,4124.6154,4140.5128,4094.359,4128.7179
4118.4615,4117.4359,4134.359,4121.5385,4126.6667,4138.4615,4138.9744,4137.4359,4121.0256,4138.9744,4087.6923,4127.6923
4118.4615,4122.0513,4132.8205,4115.8974,4125.1282,4137.9487,4140,4139.4872,4115.3846,4136.4103,4085.641,4125.1282
4112.8205,4119.4872,4129.7436,4110.7692,4121.5385,4134.8718,4136.9231,4140,4108.2051,4131.2821,4081.5385,4117.9487
4111.2821,4116.4103,4124.6154,4107.1795,4120.5128,4132.3077,4133.8462,4137.4359,4108.2051,4130.7692,4079.4872,4117.9487
4116.9231,4121.5385,4127.6923,4113.3333,4123.5897,4136.9231,4138.4615,4144.1026,4116.9231,4134.359,4089.2308,4125.1282
4123.0769,4125.641,4135.3846,4125.1282,4126.6667,4141.0256,4144.1026,4154.359,4120,4134.8718,4094.359,4127.1795
4122.5641,4124.6154,4131.2821,4121.5385,4125.641,4139.4872,4141.0256,4150.2564,4112.3077,4133.3333,4087.1795,4123.5897
4113.3333,4119.4872,4120,4107.6923,4121.5385,4136.4103,4134.8718,4137.9487,4105.641,4128.2051,4081.5385,4118.9744
4109.7436,4121.0256,4122.5641,4109.7436,4122.0513,4136.4103,4136.4103,4134.8718,4112.3077,4128.7179,4086.1538,4118.9744
4117.9487,4127.6923,4130.7692,4122.5641,4123.5897,4134.359,4135.8974,4136.9231,4121.0256,4130.7692,4090.7692,4125.1282
4123.0769,4127.6923,4127.6923,4118.4615,4121.5385,4131.2821,4128.7179,4134.8718,4115.3846,4128.7179,4091.2821,4128.2051
4122.5641,4128.2051,4124.6154,4111.2821,4121.0256,4132.8205,4123.5897,4134.359,4108.2051,4130.7692,4094.8718,4127.1795
4123.5897,4129.2308,4128.7179,4121.0256,4124.1026,4134.359,4124.6154,4136.4103,4107.6923,4132.3077,4097.4359,4126.6667
4125.641,4124.6154,4132.3077,4124.1026,4124.6154,4132.8205,4126.1538,4137.4359,4112.3077,4131.7949,4094.8718,4128.7179
4124.1026,4123.5897,4126.1538,4114.359,4121.0256,4134.359,4124.1026,4134.359,4111.2821,4129.7436,4091.7949,4126.6667
4121.5385,4128.2051,4121.5385,4116.9231,4122.5641,4135.8974,4123.0769,4135.3846,4106.6667,4128.7179,4092.3077,4123.0769
4123.0769,4131.7949,4123.5897,4124.1026,4127.1795,4136.9231,4126.1538,4135.8974,4108.7179,4128.2051,4093.3333,4123.5897
4122.5641,4127.6923,4121.0256,4117.4359,4127.1795,4135.3846,4127.1795,4130.2564,4107.1795,4121.0256,4091.7949,4123.0769
4115.3846,4125.641,4114.8718,4108.7179,4124.1026,4131.2821,4123.5897,4125.1282,4099.4872,4114.8718,4090.7692,4120.5128
4110.7692,4129.2308,4114.359,4108.2051,4122.5641,4128.7179,4122.0513,4125.1282,4097.4359,4119.4872,4090.2564,4117.9487
4113.8462,4128.2051,4117.9487,4106.1538,4122.0513,4132.8205,4124.1026,4128.2051,4104.1026,4124.1026,4088.7179,4116.9231
4118.9744,4126.1538,4123.5897,4106.6667,4124.6154,4136.4103,4123.5897,4135.3846,4110.2564,4126.6667,4094.359,4122.0513
4119.4872,4128.2051,4125.1282,4115.3846,4130.2564,4138.9744,4123.5897,4141.5385,4111.2821,4129.2308,4102.5641,4123.5897
4118.9744,4129.7436,4122.0513,4118.4615,4127.6923,4137.9487,4124.6154,4137.9487,4107.6923,4126.6667,4098.9744,4118.9744
4119.4872,4128.2051,4126.1538,4117.4359,4124.1026,4135.3846,4125.641,4134.8718,4111.2821,4126.6667,4097.4359,4124.1026
4122.5641,4128.2051,4130.7692,4121.0256,4126.6667,4138.9744,4134.359,4140,4121.5385,4132.3077,4107.6923,4135.3846
4124.6154,4130.2564,4129.2308,4120.5128,4126.6667,4139.4872,4133.3333,4139.4872,4121.0256,4134.359,4109.2308,4133.8462
4122.0513,4129.7436,4125.1282,4115.3846,4124.6154,4135.3846,4123.0769,4133.3333,4115.3846,4128.7179,4103.0769,4129.2308
4124.1026,4130.7692,4126.1538,4117.9487,4126.6667,4138.4615,4128.7179,4135.8974,4115.8974,4129.7436,4107.6923,4133.8462
4127.1795,4131.7949,4130.7692,4123.0769,4126.1538,4138.9744,4136.9231,4139.4872,4117.9487,4137.4359,4113.8462,4135.8974
4121.0256,4124.6154,4128.2051,4114.359,4121.0256,4129.2308,4127.1795,4132.3077,4112.8205,4132.8205,4108.2051,4128.2051
4119.4872,4125.641,4124.6154,4108.2051,4121.5385,4127.1795,4120,4123.5897,4108.7179,4125.641,4104.6154,4124.6154
4124.6154,4131.7949,4124.1026,4115.8974,4126.6667,4135.8974,4125.1282,4126.6667,4113.3333,4126.1538,4106.6667,4125.641
4125.641,4125.641,4123.5897,4120,4126.6667,4137.9487,4132.3077,4133.3333,4115.3846,4129.2308,4109.2308,4125.1282
4123.5897,4122.5641,4122.0513,4113.3333,4126.1538,4136.4103,4134.8718,4133.8462,4113.3333,4130.2564,4111.7949,4130.7692
4125.641,4127.1795,4124.1026,4109.2308,4127.6923,4140.5128,4131.7949,4135.8974,4113.8462,4127.1795,4113.3333,4134.8718
4128.2051,4128.2051,4127.1795,4111.7949,4129.2308,4135.8974,4126.6667,4135.3846,4116.4103,4127.6923,4113.3333,4132.3077
4127.1795,4127.6923,4124.1026,4111.7949,4130.7692,4127.1795,4125.641,4125.641,4110.7692,4126.1538,4111.2821,4127.6923
4123.0769,4127.1795,4118.9744,4108.2051,4133.8462,4129.2308,4122.0513,4122.0513,4105.1282,4118.4615,4105.641,4127.6923
4126.1538,4127.6923,4125.1282,4112.3077,4138.4615,4132.3077,4117.9487,4131.7949,4113.3333,4120.5128,4111.7949,4133.8462
4132.8205,4124.1026,4133.8462,4117.4359,4135.3846,4135.3846,4124.6154,4141.0256,4121.0256,4127.1795,4125.1282,4136.4103
4128.7179,4122.0513,4129.7436,4112.3077,4128.2051,4134.8718,4128.7179,4134.8718,4114.359,4122.5641,4120,4128.2051
4121.0256,4124.1026,4124.1026,4107.6923,4126.1538,4129.2308,4122.0513,4125.641,4103.5897,4115.3846,4106.6667,4123.5897
4123.0769,4123.0769,4127.6923,4112.3077,4125.641,4128.7179,4119.4872,4122.5641,4102.5641,4118.4615,4105.641,4128.7179
4130.2564,4125.1282,4132.3077,4117.4359,4126.1538,4136.4103,4123.5897,4125.1282,4108.7179,4123.0769,4110.7692,4132.8205
4133.3333,4126.6667,4130.7692,4120,4127.1795,4137.4359,4124.1026,4126.1538,4108.2051,4121.0256,4112.3077,4129.7436
4131.2821,4125.641,4127.1795,4121.5385,4129.2308,4132.8205,4119.4872,4123.5897,4100,4119.4872,4109.2308,4126.1538
4128.7179,4126.1538,4126.6667,4115.8974,4133.8462,4134.8718,4121.5385,4124.1026,4093.8462,4121.5385,4113.8462,4128.7179
4126.6667,4123.5897,4123.0769,4108.7179,4135.3846,4136.4103,4124.6154,4123.0769,4095.3846,4121.0256,4121.0256,4130.7692
4119.4872,4120,4116.4103,4106.1538,4132.8205,4132.8205,4123.5897,4120,4094.8718,4116.9231,4110.7692,4120.5128
4112.8205,4118.9744,4113.3333,4104.6154,4131.7949,4131.7949,4125.1282,4120.5128,4086.6667,4111.7949,4096.4103,4109.7436
4117.9487,4121.5385,4117.4359,4105.641,4134.359,4134.8718,4124.1026,4123.0769,4088.7179,4116.9231,4106.6667,4118.4615
4128.7179,4124.6154,4122.5641,4108.2051,4136.4103,4131.7949,4120.5128,4126.6667,4103.0769,4127.6923,4123.5897,4130.2564
4129.7436,4123.5897,4124.6154,4108.7179,4131.7949,4123.5897,4120,4127.6923,4110.2564,4129.7436,4126.1538,4130.2564
4127.1795,4124.6154,4127.6923,4114.8718,4128.2051,4125.641,4121.5385,4130.7692,4111.2821,4130.7692,4127.6923,4131.7949
4131.7949,4122.0513,4129.2308,4120,4131.7949,4136.9231,4123.0769,4136.9231,4117.4359,4129.2308,4130.7692,4134.359
4134.8718,4121.0256,4125.641,4119.4872,4132.3077,4138.4615,4125.1282,4132.3077,4120.5128,4123.5897,4127.6923,4131.2821
4127.6923,4121.5385,4120,4116.4103,4128.7179,4131.2821,4123.5897,4122.5641,4116.4103,4122.5641,4122.5641,4126.1538
4118.9744,4116.9231,4117.4359,4105.641,4129.7436,4132.8205,4125.1282,4124.6154,4111.7949,4121.5385,4122.0513,4120.5128
4120.5128,4117.9487,4116.4103,4094.8718,4130.7692,4135.3846,4125.641,4128.7179,4105.641,4119.4872,4120,4116.9231
4118.9744,4120,4109.7436,4093.8462,4125.641,4126.1538,4114.8718,4119.4872,4099.4872,4115.3846,4112.3077,4112.8205
4112.8205,4118.4615,4107.1795,4095.3846,4122.5641,4120,4111.2821,4115.8974,4103.5897,4114.8718,4107.6923,4112.8205
4114.8718,4122.0513,4115.8974,4095.8974,4124.6154,4123.0769,4118.9744,4123.0769,4105.641,4118.9744,4108.7179,4118.4615
4117.4359,4121.5385,4117.9487,4100.5128,4124.6154,4123.0769,4117.9487,4122.5641,4094.8718,4118.4615,4106.6667,4116.9231
4118.9744,4120,4115.8974,4105.641,4125.1282,4121.0256,4115.3846,4120.5128,4092.8205,4120.5128,4106.1538,4114.8718
4120.5128,4125.641,4117.9487,4105.1282,4128.2051,4125.1282,4120,4122.0513,4098.9744,4120,4107.1795,4116.4103
4121.0256,4126.1538,4117.9487,4105.1282,4130.2564,4130.2564,4124.1026,4121.5385,4092.3077,4114.359,4106.1538,4115.3846
4123.5897,4121.0256,4118.4615,4107.6923,4132.3077,4135.8974,4123.0769,4121.0256,4088.7179,4120.5128,4106.6667,4115.8974
4124.6154,4119.4872,4118.9744,4107.6923,4131.7949,4139.4872,4125.641,4126.1538,4094.8718,4128.7179,4108.7179,4120
4125.641,4124.1026,4119.4872,4106.6667,4127.6923,4136.9231,4131.7949,4133.8462,4098.4615,4129.2308,4107.6923,4124.1026
4125.641,4126.1538,4118.9744,4106.1538,4127.6923,4136.9231,4133.3333,4135.3846,4098.9744,4127.6923,4105.641,4123.5897
4125.641,4126.1538,4116.9231,4108.2051,4131.7949,4140,4132.8205,4131.2821,4099.4872,4124.6154,4107.1795,4124.1026
4124.1026,4128.7179,4115.8974,4107.6923,4128.7179,4138.9744,4134.8718,4127.1795,4100.5128,4122.0513,4105.641,4125.641
4121.0256,4125.1282,4114.8718,4103.0769,4122.0513,4136.4103,4138.9744,4125.641,4098.9744,4120.5128,4097.4359,4121.5385
4121.0256,4124.1026,4117.4359,4103.5897,4126.6667,4136.4103,4140.5128,4124.1026,4097.4359,4122.0513,4098.4615,4123.0769
4124.6154,4128.2051,4121.0256,4107.6923,4134.8718,4137.4359,4140,4123.5897,4101.5385,4125.641,4106.6667,4129.2308
4126.1538,4127.1795,4123.0769,4107.1795,4132.8205,4135.8974,4138.4615,4122.5641,4103.0769,4125.641,4102.5641,4128.7179
4124.6154,4127.1795,4126.6667,4106.1538,4128.7179,4134.359,4136.9231,4122.5641,4101.0256,4125.1282,4095.8974,4127.6923
4123.5897,4125.1282,4128.2051,4109.2308,4129.7436,4136.4103,4140.5128,4126.1538,4101.5385,4124.6154,4101.5385,4129.2308
4123.0769,4120.5128,4124.6154,4109.2308,4131.2821,4137.9487,4142.0513,4126.1538,4101.5385,4128.7179,4100.5128,4125.1282
4120.5128,4116.9231,4118.4615,4105.641,4127.6923,4133.3333,4139.4872,4121.5385,4094.359,4129.7436,4089.7436,4118.9744
4120.5128,4114.359,4118.9744,4105.1282,4124.1026,4130.2564,4139.4872,4124.1026,4097.4359,4126.6667,4094.359,4118.9744
4123.0769,4121.0256,4124.6154,4109.2308,4126.6667,4133.8462,4141.0256,4133.8462,4109.7436,4132.8205,4107.6923,4125.641
4129.7436,4127.1795,4129.7436,4114.359,4128.7179,4136.4103,4142.0513,4138.4615,4103.5897,4138.9744,4106.6667,4130.7692
4138.4615,4127.1795,4137.9487,4115.8974,4127.6923,4135.8974,4148.2051,4137.4359,4102.5641,4144.1026,4108.2051,4138.9744
4143.0769,4128.2051,4142.5641,4118.4615,4129.7436,4133.8462,4150.7692,4136.9231,4118.4615,4151.7949,4119.4872,4145.641
4141.5385,4128.7179,4138.9744,4121.5385,4129.7436,4132.8205,4143.5897,4136.4103,4124.1026,4152.8205,4122.5641,4143.5897
4141.0256,4128.7179,4140.5128,4120,4127.6923,4135.8974,4140,4137.9487,4118.9744,4152.8205,4121.5385,4142.5641
4139.4872,4126.1538,4139.4872,4116.4103,4126.6667,4133.3333,4141.0256,4141.0256,4112.3077,4146.1538,4124.1026,4140.5128
4129.2308,4124.6154,4128.2051,4112.8205,4128.2051,4127.1795,4140,4140,4105.641,4134.8718,4118.9744,4132.3077
4128.2051,4127.6923,4126.1538,4107.6923,4132.3077,4127.6923,4140.5128,4136.9231,4110.7692,4135.3846,4117.4359,4130.7692
4136.9231,4130.2564,4134.359,4106.6667,4134.8718,4133.3333,4141.5385,4136.9231,4117.4359,4143.5897,4123.5897,4134.359
4137.4359,4133.3333,4132.3077,4114.359,4134.359,4133.8462,4140,4139.4872,4113.3333,4143.0769,4120,4135.3846
4126.6667,4132.3077,4122.0513,4117.9487,4129.7436,4128.7179,4140,4139.4872,4104.6154,4131.2821,4108.7179,4130.2564
4121.0256,4129.2308,4118.9744,4117.9487,4124.1026,4122.5641,4136.9231,4130.7692,4097.9487,4126.1538,4102.0513,4123.5897
4128.2051,4134.8718,4124.6154,4124.1026,4125.641,4120,4131.2821,4119.4872,4097.4359,4130.7692,4108.2051,4124.1026
4137.9487,4136.9231,4128.2051,4118.4615,4134.359,4127.1795,4133.8462,4125.1282,4108.7179,4138.4615,4131.7949,4134.8718
4141.5385,4130.2564,4129.2308,4105.641,4134.359,4135.3846,4138.9744,4139.4872,4114.359,4146.1538,4143.0769,4143.5897
4136.9231,4125.1282,4127.6923,4109.2308,4127.6923,4135.8974,4136.9231,4134.8718,4102.5641,4142.5641,4126.6667,4136.4103
4135.3846,4124.1026,4125.641,4120,4132.3077,4134.8718,4134.8718,4128.2051,4105.1282,4136.9231,4122.0513,4129.7436
4140.5128,4128.2051,4131.2821,4121.0256,4141.0256,4137.4359,4137.9487,4138.4615,4122.5641,4144.6154,4133.8462,4136.4103
4138.9744,4128.7179,4131.2821,4119.4872,4135.8974,4133.3333,4137.9487,4137.9487,4114.8718,4146.1538,4126.1538,4135.3846
4132.8205,4125.641,4126.1538,4121.0256,4127.6923,4123.5897,4132.8205,4123.5897,4107.6923,4139.4872,4115.8974,4126.6667
4133.3333,4126.1538,4128.2051,4121.5385,4129.7436,4126.1538,4132.8205,4122.0513,4118.9744,4140,4123.0769,4125.641
4132.8205,4126.1538,4125.641,4117.9487,4130.7692,4129.7436,4137.4359,4124.1026,4107.1795,4137.4359,4118.4615,4124.1026
4129.7436,4129.7436,4120.5128,4110.2564,4130.2564,4126.1538,4134.8718,4117.4359,4091.2821,4134.359,4110.2564,4122.5641
4134.359,4133.8462,4125.641,4110.2564,4132.8205,4126.6667,4127.1795,4117.4359,4106.6667,4138.9744,4121.5385,4127.1795
4139.4872,4134.359,4132.3077,4116.9231,4132.3077,4127.6923,4128.2051,4123.0769,4116.9231,4142.0513,4121.0256,4130.7692
4137.4359,4131.7949,4131.2821,4117.9487,4131.7949,4126.1538,4133.3333,4125.641,4109.2308,4140.5128,4110.2564,4131.2821
4137.9487,4129.7436,4131.7949,4115.3846,4132.3077,4128.7179,4132.3077,4127.1795,4110.7692,4141.5385,4115.3846,4134.8718
4140.5128,4130.7692,4133.8462,4115.8974,4132.3077,4127.1795,4125.1282,4123.5897,4110.2564,4141.5385,4117.4359,4135.3846
4137.4359,4128.7179,4130.7692,4118.4615,4127.1795,4122.5641,4122.0513,4119.4872,4105.641,4133.3333,4112.3077,4129.7436
4138.4615,4131.7949,4129.7436,4122.0513,4127.1795,4128.2051,4129.7436,4121.5385,4111.7949,4131.7949,4119.4872,4132.3077
4141.0256,4134.8718,4131.7949,4122.5641,4133.8462,4133.8462,4135.3846,4123.0769,4115.8974,4137.4359,4124.6154,4137.4359
4140.5128,4129.2308,4133.8462,4121.0256,4135.8974,4132.8205,4132.3077,4124.6154,4118.9744,4140.5128,4121.0256,4134.359
4142.0513,4128.2051,4137.4359,4124.6154,4133.8462,4130.7692,4127.1795,4125.641,4126.1538,4143.0769,4122.5641,4133.3333
4141.5385,4128.7179,4135.3846,4122.0513,4128.2051,4127.6923,4125.641,4121.0256,4125.1282,4138.9744,4124.6154,4133.8462
4139.4872,4130.2564,4133.3333,4115.3846,4123.5897,4122.0513,4123.5897,4116.9231,4123.0769,4137.4359,4120,4135.3846
4142.0513,4132.8205,4136.4103,4115.3846,4122.5641,4122.5641,4121.0256,4116.9231,4124.1026,4143.5897,4120,4136.9231
4140.5128,4130.2564,4135.3846,4115.3846,4125.1282,4127.1795,4122.5641,4121.5385,4125.1282,4145.1282,4124.6154,4134.8718
4130.2564,4128.7179,4129.2308,4108.7179,4123.5897,4125.641,4123.5897,4122.5641,4124.6154,4137.9487,4118.9744,4128.2051
4121.5385,4127.1795,4119.4872,4102.5641,4118.9744,4121.0256,4123.0769,4113.8462,4122.0513,4128.2051,4105.1282,4118.9744
4123.0769,4125.641,4117.4359,4105.641,4122.5641,4121.5385,4122.5641,4111.7949,4121.5385,4130.2564,4108.7179,4119.4872
4132.8205,4129.2308,4126.1538,4110.2564,4126.1538,4127.1795,4126.1538,4122.5641,4125.1282,4135.3846,4124.6154,4131.2821
4133.3333,4128.7179,4126.1538,4110.7692,4123.0769,4129.2308,4130.2564,4127.1795,4126.1538,4132.3077,4124.6154,4133.8462
4125.641,4125.1282,4122.0513,4109.7436,4122.0513,4126.1538,4127.6923,4122.0513,4125.1282,4132.8205,4119.4872,4127.6923
4129.2308,4128.2051,4124.6154,4110.2564,4125.1282,4123.5897,4124.6154,4120.5128,4124.6154,4134.359,4125.1282,4129.2308
4130.2564,4133.8462,4124.1026,4111.2821,4122.0513,4121.5385,4121.0256,4116.9231,4120.5128,4128.7179,4118.9744,4127.6923
4123.5897,4133.8462,4117.9487,4107.6923,4115.8974,4118.9744,4115.8974,4106.1538,4117.4359,4125.641,4106.6667,4119.4872
4126.1538,4130.7692,4120.5128,4107.1795,4116.9231,4119.4872,4115.8974,4105.641,4123.0769,4130.7692,4114.359,4125.1282
4133.3333,4131.7949,4128.7179,4110.7692,4124.1026,4128.7179,4122.5641,4114.8718,4127.1795,4135.8974,4125.1282,4133.8462
4130.2564,4131.2821,4125.641,4110.2564,4125.1282,4135.8974,4127.1795,4120,4123.5897,4132.8205,4111.7949,4124.1026
4125.1282,4129.7436,4119.4872,4106.6667,4121.5385,4137.4359,4127.1795,4121.0256,4118.9744,4131.2821,4098.4615,4112.8205
4126.1538,4134.8718,4121.5385,4108.2051,4123.0769,4133.8462,4126.6667,4121.0256,4121.5385,4133.3333,4111.2821,4116.4103
4130.2564,4135.3846,4122.5641,4108.2051,4122.5641,4128.2051,4126.1538,4117.9487,4127.6923,4133.3333,4123.5897,4121.0256
4135.3846,4134.359,4125.641,4108.2051,4121.0256,4122.5641,4122.5641,4115.3846,4131.2821,4137.9487,4120.5128,4127.1795
4134.8718,4138.4615,4131.7949,4114.359,4127.6923,4121.5385,4122.0513,4119.4872,4134.8718,4145.641,4122.5641,4131.2821
4140.5128,4140,4138.4615,4122.0513,4131.7949,4128.2051,4124.1026,4123.5897,4137.9487,4147.6923,4133.3333,4134.8718
4156.4103,4142.5641,4145.1282,4128.7179,4129.7436,4134.8718,4124.1026,4122.5641,4137.9487,4152.8205,4141.0256,4146.6667
4169.2308,4145.1282,4150.7692,4136.4103,4130.7692,4136.4103,4124.6154,4123.5897,4142.0513,4160,4156.4103,4159.4872
4186.6667,4147.1795,4156.4103,4146.1538,4134.8718,4135.8974,4125.641,4123.5897,4154.359,4165.641,4181.0256,4173.8462
4205.641,4150.7692,4158.9744,4152.3077,4135.8974,4136.4103,4122.0513,4113.3333,4157.4359,4167.6923,4193.8462,4189.2308
4217.9487,4153.3333,4160.5128,4155.8974,4131.7949,4134.8718,4119.4872,4105.641,4152.8205,4169.7436,4201.5385,4200
4230.7692,4156.4103,4165.641,4160,4127.6923,4127.1795,4119.4872,4110.2564,4162.0513,4177.4359,4218.4615,4213.8462
4244.1026,4154.8718,4168.7179,4158.4615,4128.2051,4124.1026,4117.4359,4113.8462,4166.1538,4176.9231,4230.2564,4224.1026
4250.7692,4153.8462,4170.7692,4155.8974,4133.3333,4125.641,4116.9231,4111.7949,4156.9231,4172.8205,4231.7949,4226.6667
4252.8205,4153.3333,4173.8462,4162.5641,4136.4103,4125.641,4119.4872,4111.2821,4157.4359,4175.8974,4229.2308,4228.2051
4246.1538,4145.1282,4172.3077,4167.6923,4136.9231,4126.1538,4122.5641,4112.3077,4157.9487,4175.8974,4221.5385,4225.641
4236.9231,4138.4615,4172.8205,4161.0256,4141.0256,4130.2564,4124.1026,4115.3846,4155.3846,4174.359,4213.8462,4220
4230.7692,4133.8462,4172.3077,4155.8974,4140.5128,4131.7949,4123.0769,4122.0513,4161.5385,4174.359,4208.2051,4216.4103
4216.4103,4128.2051,4164.1026,4151.2821,4131.2821,4126.6667,4121.0256,4122.0513,4157.4359,4171.7949,4192.8205,4205.1282
4198.9744,4125.641,4157.4359,4142.0513,4125.641,4122.5641,4121.0256,4118.4615,4142.0513,4164.1026,4175.3846,4191.7949
4197.4359,4129.7436,4158.9744,4139.4872,4132.3077,4127.6923,4121.0256,4121.0256,4143.5897,4164.1026,4172.8205,4192.8205
4203.0769,4132.8205,4162.5641,4143.5897,4140,4134.8718,4119.4872,4123.5897,4154.359,4169.7436,4176.9231,4192.8205
4196.4103,4128.7179,4162.5641,4143.0769,4138.4615,4137.4359,4122.5641,4122.5641,4152.3077,4164.6154,4172.8205,4183.5897
4186.1538,4128.7179,4161.0256,4141.5385,4136.9231,4136.4103,4131.2821,4122.5641,4147.6923,4156.9231,4162.5641,4180.5128
4183.0769,4133.8462,4157.4359,4140,4140,4135.8974,4135.8974,4122.5641,4143.0769,4158.9744,4153.3333,4175.8974
4180,4132.3077,4148.7179,4136.9231,4136.9231,4137.4359,4135.8974,4124.6154,4135.8974,4157.4359,4145.641,4166.1538
4171.2821,4130.7692,4147.1795,4138.4615,4131.7949,4133.8462,4136.4103,4128.2051,4137.9487,4153.8462,4143.5897,4167.1795
4156.9231,4126.6667,4146.6667,4133.8462,4131.7949,4128.2051,4136.4103,4127.1795,4136.9231,4152.3077,4137.4359,4165.1282
4149.2308,4124.1026,4138.9744,4122.5641,4133.3333,4126.6667,4132.3077,4119.4872,4123.0769,4145.1282,4121.0256,4148.2051
4151.2821,4131.2821,4138.4615,4126.1538,4135.8974,4132.8205,4132.3077,4117.4359,4119.4872,4142.0513,4117.9487,4144.1026
4155.8974,4133.8462,4146.1538,4136.4103,4133.8462,4138.9744,4138.4615,4123.0769,4124.6154,4148.7179,4123.5897,4152.8205
4151.7949,4128.7179,4146.1538,4131.2821,4126.6667,4134.8718,4138.9744,4127.6923,4121.0256,4150.7692,4115.3846,4150.2564
4144.1026,4127.1795,4136.9231,4120,4126.1538,4124.6154,4135.3846,4126.1538,4115.3846,4142.5641,4101.5385,4135.8974
4145.641,4130.2564,4136.4103,4120.5128,4133.8462,4126.6667,4136.9231,4127.6923,4116.9231,4145.1282,4103.5897,4135.8974
4155.8974,4133.3333,4148.7179,4130.7692,4140,4136.9231,4141.5385,4134.359,4123.5897,4159.4872,4116.9231,4151.2821
4156.4103,4130.7692,4152.8205,4136.9231,4135.3846,4132.3077,4140,4132.8205,4132.8205,4162.5641,4124.6154,4155.3846
4146.1538,4130.7692,4146.6667,4132.3077,4130.7692,4121.0256,4136.4103,4124.1026,4133.3333,4155.3846,4115.8974,4147.1795
4144.6154,4131.2821,4143.5897,4125.641,4134.359,4128.7179,4140,4124.6154,4122.0513,4148.2051,4105.1282,4140
4148.7179,4127.1795,4142.0513,4122.5641,4134.359,4140,4141.5385,4128.7179,4119.4872,4147.6923,4107.6923,4136.4103
4146.6667,4128.2051,4139.4872,4127.1795,4129.2308,4135.3846,4138.9744,4123.5897,4127.6923,4151.7949,4110.2564,4138.4615
4141.5385,4130.7692,4140,4133.3333,4128.2051,4132.8205,4145.1282,4124.1026,4124.1026,4147.6923,4106.6667,4138.9744
4142.0513,4130.7692,4142.0513,4131.7949,4130.7692,4138.4615,4149.7436,4135.8974,4114.359,4146.6667,4106.6667,4136.4103
4141.0256,4130.7692,4138.4615,4125.641,4125.1282,4134.359,4143.5897,4134.359,4115.8974,4148.7179,4101.0256,4132.8205
4130.2564,4127.6923,4128.2051,4121.5385,4119.4872,4127.6923,4139.4872,4122.5641,4112.3077,4138.4615,4088.7179,4125.1282
4121.5385,4127.6923,4123.5897,4120.5128,4123.0769,4131.2821,4142.5641,4124.6154,4104.1026,4131.2821,4086.1538,4117.4359
4122.5641,4126.6667,4125.641,4120,4126.6667,4136.4103,4145.641,4134.8718,4107.6923,4135.3846,4093.3333,4118.9744
4125.641,4126.6667,4127.6923,4118.4615,4125.1282,4134.359,4149.2308,4134.8718,4111.7949,4135.8974,4091.2821,4120.5128
4122.0513,4126.6667,4127.6923,4115.8974,4121.5385,4133.8462,4153.8462,4134.359,4110.2564,4136.9231,4084.6154,4114.8718
4119.4872,4126.1538,4131.2821,4120,4122.0513,4136.9231,4153.3333,4138.9744,4112.3077,4142.5641,4090.7692,4117.9487
4126.6667,4131.2821,4137.9487,4125.1282,4126.1538,4137.9487,4150.2564,4137.9487,4118.4615,4145.1282,4100.5128,4127.1795
4130.7692,4129.7436,4136.9231,4124.1026,4128.7179,4138.9744,4153.3333,4138.4615,4115.8974,4144.1026,4101.0256,4124.1026
4130.7692,4124.6154,4132.3077,4123.5897,4128.2051,4138.4615,4154.8718,4140.5128,4110.2564,4146.6667,4096.4103,4122.0513
4134.8718,4128.2051,4132.8205,4123.5897,4126.1538,4137.4359,4146.1538,4137.4359,4113.3333,4147.6923,4094.359,4132.3077
4137.9487,4130.2564,4132.3077,4123.0769,4126.6667,4140,4144.1026,4137.9487,4117.4359,4145.1282,4100.5128,4136.9231
4136.4103,4127.6923,4133.3333,4125.1282,4129.7436,4141.0256,4150.7692,4141.0256,4121.0256,4148.7179,4107.1795,4131.2821
4130.2564,4127.1795,4131.7949,4123.5897,4128.2051,4137.4359,4146.1538,4136.9231,4120,4145.641,4098.9744,4125.1282
4123.5897,4131.7949,4127.6923,4119.4872,4123.0769,4136.4103,4135.8974,4133.3333,4113.3333,4141.0256,4089.2308,4124.6154
4120.5128,4133.8462,4129.7436,4122.5641,4123.0769,4137.4359,4136.9231,4136.4103,4107.1795,4144.6154,4092.8205,4125.641
4120,4128.7179,4131.7949,4121.0256,4125.1282,4132.3077,4138.4615,4136.4103,4106.6667,4147.6923,4094.359,4123.0769
4121.5385,4130.2564,4129.7436,4110.7692,4123.5897,4124.1026,4135.3846,4131.7949,4111.2821,4146.6667,4091.2821,4123.5897
4121.0256,4130.7692,4127.6923,4109.7436,4122.0513,4127.1795,4137.9487,4130.7692,4108.7179,4140.5128,4091.2821,4122.0513
4118.9744,4127.1795,4127.6923,4114.359,4124.1026,4135.8974,4142.0513,4132.8205,4105.641,4138.9744,4083.0769,4114.8718
4120.5128,4133.3333,4130.2564,4115.8974,4127.1795,4136.9231,4141.0256,4135.3846,4111.7949,4144.1026,4078.4615,4117.4359
4124.1026,4139.4872,4131.7949,4119.4872,4125.641,4134.359,4137.4359,4133.8462,4113.3333,4144.6154,4096.4103,4127.6923
4126.6667,4135.3846,4133.8462,4123.5897,4125.1282,4136.9231,4137.4359,4136.9231,4108.7179,4145.641,4111.2821,4131.7949
4130.2564,4128.7179,4133.8462,4123.0769,4126.6667,4140,4142.5641,4145.641,4111.2821,4149.2308,4107.6923,4132.3077
4131.2821,4130.7692,4135.8974,4121.5385,4126.1538,4137.9487,4145.1282,4147.6923,4116.4103,4149.7436,4105.641,4133.3333
4130.7692,4134.8718,4138.4615,4122.5641,4124.1026,4134.359,4141.5385,4146.1538,4116.9231,4149.7436,4108.7179,4135.3846
4134.8718,4131.7949,4136.9231,4124.6154,4124.1026,4134.8718,4140,4150.7692,4123.5897,4154.359,4109.7436,4135.3846
4140,4130.2564,4138.4615,4125.641,4126.1538,4138.4615,4142.5641,4155.3846,4132.8205,4158.4615,4111.7949,4136.9231
4136.9231,4132.3077,4137.9487,4122.5641,4124.6154,4135.8974,4140.5128,4147.6923,4126.6667,4150.7692,4108.7179,4134.359
4134.359,4130.2564,4134.8718,4121.5385,4121.5385,4129.7436,4135.3846,4141.5385,4123.0769,4145.641,4105.1282,4129.7436
4138.4615,4133.3333,4135.8974,4122.5641,4127.1795,4131.7949,4136.9231,4144.6154,4128.2051,4151.2821,4111.2821,4132.3077
4138.9744,4134.8718,4135.8974,4120,4131.7949,4138.4615,4142.0513,4147.6923,4124.6154,4150.2564,4114.8718,4134.8718
4134.359,4130.7692,4132.8205,4121.0256,4127.6923,4139.4872,4142.0513,4145.641,4120.5128,4145.641,4108.7179,4129.7436
4127.6923,4130.2564,4132.3077,4122.5641,4124.6154,4131.7949,4138.9744,4141.5385,4118.4615,4145.641,4107.6923,4123.0769
4120,4130.2564,4129.2308,4115.3846,4124.6154,4127.6923,4136.4103,4137.9487,4108.2051,4144.1026,4106.6667,4121.5385
4119.4872,4128.2051,4126.1538,4111.7949,4124.6154,4132.3077,4136.9231,4134.8718,4101.0256,4143.0769,4094.359,4121.0256
4123.0769,4124.6154,4130.2564,4118.4615,4125.641,4138.9744,4142.5641,4145.641,4107.1795,4144.6154,4088.2051,4120
4125.641,4128.2051,4135.8974,4123.5897,4124.1026,4137.4359,4144.1026,4153.3333,4114.8718,4145.641,4098.4615,4124.6154
4128.7179,4133.3333,4135.3846,4123.0769,4125.1282,4130.7692,4139.4872,4145.641,4118.4615,4152.3077,4108.7179,4128.2051
4129.7436,4129.7436,4133.8462,4123.5897,4130.2564,4127.6923,4135.8974,4134.8718,4123.0769,4156.9231,4109.7436,4128.2051
4129.7436,4128.7179,4133.8462,4122.5641,4129.2308,4130.7692,4133.8462,4129.7436,4123.0769,4153.8462,4110.2564,4131.2821
4132.8205,4129.7436,4132.3077,4121.0256,4126.6667,4135.8974,4133.8462,4132.8205,4120,4152.3077,4116.4103,4134.359
4137.9487,4131.2821,4136.9231,4123.0769,4129.7436,4136.9231,4137.9487,4140,4123.0769,4159.4872,4121.0256,4137.9487
4137.9487,4129.7436,4140.5128,4122.5641,4132.3077,4135.8974,4138.9744,4140,4124.6154,4156.9231,4115.8974,4138.9744
4133.8462,4129.2308,4130.2564,4121.5385,4131.2821,4137.9487,4135.3846,4131.2821,4118.9744,4144.6154,4108.7179,4132.3077
4133.3333,4132.8205,4125.1282,4124.1026,4133.8462,4138.9744,4136.9231,4131.2821,4122.5641,4145.641,4108.7179,4129.7436
4130.2564,4128.7179,4128.7179,4125.1282,4134.8718,4140,4138.9744,4134.8718,4121.0256,4147.1795,4107.6923,4130.2564
4126.6667,4127.6923,4127.6923,4121.5385,4134.359,4140.5128,4135.8974,4129.7436,4108.7179,4142.0513,4106.1538,4128.7179
4124.1026,4133.3333,4121.0256,4119.4872,4135.3846,4139.4872,4134.359,4123.5897,4107.1795,4141.5385,4107.6923,4123.5897
4122.0513,4130.7692,4116.9231,4118.9744,4133.3333,4138.9744,4135.8974,4125.641,4113.8462,4141.0256,4105.641,4118.4615
4128.7179,4130.2564,4123.5897,4122.0513,4134.359,4140.5128,4136.4103,4133.3333,4118.9744,4143.5897,4108.2051,4126.6667
4136.4103,4134.359,4129.2308,4124.6154,4134.359,4140,4135.8974,4135.8974,4120,4146.6667,4111.2821,4134.359
4128.2051,4130.2564,4122.0513,4116.4103,4130.2564,4136.9231,4134.8718,4134.8718,4114.359,4139.4872,4106.1538,4123.5897
4121.0256,4126.1538,4115.3846,4109.2308,4131.2821,4135.8974,4134.359,4135.8974,4113.8462,4133.8462,4106.1538,4117.4359
4129.7436,4129.2308,4117.4359,4115.3846,4135.8974,4136.9231,4136.9231,4136.9231,4124.6154,4137.9487,4113.8462,4129.7436
4133.8462,4134.8718,4125.1282,4123.0769,4136.4103,4137.4359,4140,4137.9487,4130.7692,4148.7179,4113.8462,4135.3846
4125.641,4131.7949,4125.641,4120,4133.8462,4137.9487,4140.5128,4139.4872,4123.5897,4148.7179,4104.1026,4126.1538
4123.0769,4128.2051,4116.4103,4117.4359,4135.8974,4139.4872,4142.0513,4140.5128,4114.359,4140,4098.4615,4121.5385
4124.6154,4133.8462,4113.8462,4123.5897,4137.4359,4140,4143.5897,4136.9231,4110.7692,4138.9744,4094.359,4123.0769
4123.0769,4135.3846,4115.8974,4122.0513,4135.3846,4139.4872,4142.5641,4129.2308,4111.2821,4138.9744,4090.2564,4118.9744
4120,4131.2821,4113.3333,4114.8718,4135.3846,4137.9487,4140,4121.5385,4108.2051,4137.4359,4088.2051,4112.3077
4118.9744,4131.2821,4110.7692,4115.3846,4135.8974,4137.4359,4139.4872,4121.5385,4109.7436,4135.8974,4087.6923,4113.8462
4121.5385,4133.3333,4120,4120,4137.9487,4138.9744,4141.5385,4124.6154,4120,4138.4615,4089.7436,4122.5641
4126.6667,4132.8205,4125.641,4122.0513,4140,4138.9744,4140,4122.0513,4122.0513,4142.5641,4092.8205,4124.1026
4126.6667,4130.2564,4121.5385,4120,4138.9744,4137.4359,4140,4121.0256,4112.8205,4143.5897,4097.4359,4119.4872
4125.1282,4130.7692,4121.0256,4115.8974,4138.4615,4137.9487,4146.1538,4125.641,4113.8462,4146.6667,4103.5897,4122.5641
4129.2308,4132.3077,4118.9744,4115.3846,4139.4872,4140.5128,4146.6667,4127.6923,4120,4145.1282,4104.6154,4123.5897
4131.2821,4131.2821,4118.9744,4117.9487,4135.8974,4136.9231,4142.5641,4126.1538,4115.8974,4143.0769,4105.1282,4121.0256
4128.7179,4132.3077,4124.6154,4118.9744,4129.2308,4133.3333,4138.9744,4128.2051,4115.8974,4146.1538,4107.1795,4123.0769
4124.1026,4129.2308,4124.1026,4117.4359,4132.3077,4137.4359,4137.9487,4135.8974,4118.4615,4143.0769,4101.5385,4121.0256
4123.0769,4127.1795,4122.5641,4119.4872,4138.4615,4138.9744,4142.5641,4137.4359,4114.8718,4142.5641,4096.4103,4118.9744
4130.2564,4132.8205,4129.2308,4122.0513,4138.4615,4136.4103,4150.7692,4135.3846,4115.8974,4150.2564,4107.1795,4130.2564
4138.4615,4131.2821,4132.3077,4123.0769,4135.8974,4139.4872,4153.8462,4136.9231,4124.1026,4153.3333,4118.9744,4136.4103
4141.5385,4131.7949,4133.3333,4130.2564,4138.9744,4143.5897,4149.7436,4136.4103,4127.1795,4153.8462,4116.9231,4135.3846
4136.9231,4133.8462,4130.2564,4134.8718,4137.9487,4140.5128,4143.5897,4134.8718,4121.5385,4152.8205,4109.7436,4133.3333
4132.3077,4130.2564,4124.6154,4128.7179,4130.7692,4138.4615,4140,4136.9231,4115.8974,4146.6667,4106.6667,4127.6923
4132.8205,4128.2051,4129.2308,4121.0256,4130.2564,4137.9487,4139.4872,4134.8718,4117.9487,4145.1282,4111.7949,4128.2051
4135.3846,4130.7692,4132.3077,4123.0769,4134.359,4135.3846,4138.4615,4128.7179,4118.9744,4146.6667,4114.359,4130.7692
4138.9744,4135.8974,4128.2051,4132.3077,4135.3846,4135.3846,4135.8974,4130.2564,4114.8718,4149.2308,4110.7692,4129.7436
4142.5641,4135.8974,4130.7692,4137.9487,4136.9231,4138.9744,4140.5128,4140.5128,4123.0769,4154.359,4114.8718,4133.8462
4145.1282,4133.3333,4140.5128,4137.4359,4140,4141.0256,4147.1795,4147.6923,4136.4103,4160.5128,4120,4140.5128
4142.5641,4131.7949,4139.4872,4137.4359,4138.4615,4137.9487,4144.1026,4144.1026,4129.7436,4160,4114.8718,4136.9231
4138.9744,4129.7436,4131.2821,4136.4103,4135.8974,4137.9487,4140.5128,4136.4103,4119.4872,4153.3333,4112.8205,4133.8462
4138.9744,4131.7949,4133.8462,4130.7692,4138.4615,4141.5385,4142.5641,4133.3333,4120.5128,4152.3077,4113.3333,4138.9744
4138.9744,4133.3333,4137.9487,4131.2821,4136.9231,4141.5385,4144.1026,4135.8974,4127.1795,4155.3846,4109.7436,4139.4872
4140.5128,4134.8718,4135.3846,4134.359,4135.3846,4139.4872,4143.5897,4138.4615,4133.3333,4159.4872,4114.359,4139.4872
4141.0256,4135.3846,4133.8462,4132.3077,4136.9231,4138.9744,4142.0513,4138.9744,4128.2051,4162.0513,4123.0769,4140
4139.4872,4128.2051,4131.7949,4130.2564,4137.4359,4138.9744,4143.0769,4140.5128,4118.9744,4158.9744,4121.5385,4136.9231
4141.0256,4125.1282,4131.2821,4130.2564,4136.9231,4139.4872,4150.2564,4140.5128,4122.0513,4159.4872,4123.0769,4137.9487
4141.0256,4128.2051,4133.8462,4125.1282,4135.8974,4141.5385,4152.3077,4140,4117.4359,4157.4359,4123.0769,4136.9231
4137.4359,4127.1795,4133.8462,4123.0769,4135.8974,4141.5385,4142.0513,4139.4872,4104.6154,4150.7692,4115.8974,4129.7436
4137.9487,4128.7179,4132.8205,4129.7436,4137.9487,4138.4615,4137.4359,4137.4359,4108.7179,4148.7179,4115.8974,4130.7692
4140,4128.2051,4133.8462,4131.2821,4136.9231,4137.4359,4138.9744,4131.2821,4115.3846,4149.2308,4120,4133.3333
4138.9744,4127.6923,4134.359,4127.6923,4133.8462,4138.4615,4136.9231,4124.6154,4111.2821,4151.7949,4117.9487,4130.2564
4135.8974,4128.2051,4130.7692,4123.5897,4135.3846,4137.4359,4134.8718,4124.6154,4112.3077,4150.7692,4116.4103,4129.7436
4138.4615,4129.7436,4131.7949,4122.0513,4138.4615,4137.4359,4139.4872,4133.3333,4117.9487,4153.3333,4120,4132.8205
4142.5641,4135.3846,4136.9231,4129.2308,4138.9744,4140.5128,4142.0513,4141.5385,4120.5128,4161.0256,4123.5897,4135.3846
4141.0256,4133.8462,4135.3846,4133.8462,4138.4615,4142.5641,4140.5128,4140,4115.8974,4158.4615,4123.0769,4132.3077
4138.4615,4130.2564,4132.8205,4130.2564,4139.4872,4140,4137.4359,4134.8718,4111.2821,4150.7692,4121.0256,4128.7179
4135.3846,4129.7436,4128.7179,4126.1538,4138.4615,4138.4615,4136.9231,4133.8462,4109.7436,4145.1282,4118.9744,4124.6154
4127.1795,4127.6923,4123.0769,4125.1282,4131.2821,4140,4139.4872,4137.9487,4109.2308,4143.5897,4120,4120
4128.2051,4127.6923,4125.641,4124.1026,4128.7179,4137.9487,4138.9744,4141.5385,4114.359,4145.641,4122.0513,4121.5385
4137.9487,4129.7436,4134.8718,4128.2051,4132.8205,4136.4103,4140,4142.0513,4121.0256,4147.6923,4124.6154,4129.2308
4142.5641,4132.3077,4141.5385,4135.3846,4133.8462,4137.9487,4140.5128,4141.0256,4120,4154.8718,4126.6667,4136.9231
4139.4872,4130.2564,4137.9487,4132.3077,4131.7949,4133.8462,4134.8718,4137.9487,4116.4103,4154.8718,4123.0769,4135.3846
4137.4359,4126.6667,4133.3333,4126.1538,4129.2308,4130.2564,4130.2564,4131.7949,4117.9487,4147.1795,4121.0256,4129.2308
4142.5641,4129.7436,4141.5385,4130.2564,4129.7436,4135.3846,4134.359,4132.8205,4122.0513,4153.8462,4123.0769,4133.8462
4149.2308,4129.2308,4147.1795,4135.3846,4132.3077,4137.9487,4138.4615,4144.6154,4128.2051,4164.1026,4126.1538,4143.5897
4152.3077,4126.6667,4144.1026,4137.4359,4132.8205,4135.8974,4136.9231,4154.8718,4135.3846,4163.5897,4131.7949,4144.1026
4152.3077,4126.1538,4146.6667,4133.3333,4126.6667,4135.8974,4137.4359,4150.7692,4136.4103,4162.5641,4136.9231,4142.0513
4148.2051,4123.5897,4148.2051,4126.1538,4121.5385,4136.9231,4139.4872,4145.1282,4132.8205,4161.0256,4136.9231,4143.0769
4146.6667,4125.1282,4143.5897,4128.7179,4124.1026,4130.7692,4132.3077,4143.5897,4129.2308,4157.4359,4134.8718,4146.1538
4151.7949,4127.6923,4142.0513,4135.8974,4124.6154,4127.6923,4126.6667,4140.5128,4125.641,4156.4103,4136.9231,4145.641
4150.2564,4127.1795,4138.4615,4136.4103,4124.1026,4130.2564,4129.2308,4136.4103,4123.5897,4153.3333,4136.9231,4144.6154
4137.9487,4125.641,4130.7692,4125.641,4123.0769,4127.1795,4129.2308,4132.8205,4121.5385,4143.5897,4127.6923,4136.9231
4133.3333,4123.5897,4129.7436,4120,4120.5128,4129.7436,4129.2308,4136.4103,4121.5385,4145.1282,4125.1282,4131.7949
4146.6667,4127.6923,4138.4615,4131.2821,4125.641,4140.5128,4137.9487,4149.7436,4129.7436,4160,4141.0256,4146.1538
4151.2821,4127.1795,4137.9487,4137.9487,4127.6923,4138.4615,4139.4872,4153.8462,4136.9231,4160.5128,4150.2564,4153.3333
4141.5385,4125.641,4134.359,4133.3333,4123.5897,4129.7436,4129.2308,4141.5385,4133.8462,4152.3077,4144.6154,4143.5897
4143.5897,4131.2821,4138.4615,4133.3333,4128.7179,4133.3333,4126.6667,4135.8974,4128.7179,4156.9231,4141.5385,4145.641
4151.7949,4129.7436,4140,4138.9744,4132.8205,4138.9744,4133.8462,4142.5641,4125.1282,4158.4615,4144.6154,4152.8205
4144.1026,4124.1026,4136.9231,4139.4872,4128.2051,4136.4103,4136.4103,4142.0513,4125.641,4152.3077,4139.4872,4144.6154
4133.3333,4123.0769,4133.8462,4132.8205,4126.6667,4134.8718,4133.3333,4133.8462,4124.1026,4146.6667,4127.1795,4134.8718
4134.359,4122.0513,4133.8462,4123.5897,4127.6923,4131.2821,4127.1795,4133.3333,4113.8462,4145.1282,4117.9487,4131.2821
4136.4103,4126.1538,4134.8718,4125.641,4126.6667,4126.6667,4123.5897,4133.3333,4109.7436,4147.6923,4118.4615,4130.2564
4136.9231,4126.1538,4135.8974,4133.3333,4126.6667,4127.1795,4125.1282,4126.1538,4116.4103,4148.2051,4122.0513,4133.3333
4137.4359,4122.0513,4138.4615,4130.7692,4125.1282,4124.1026,4125.1282,4122.5641,4118.9744,4146.6667,4121.0256,4135.3846
4135.8974,4125.1282,4141.5385,4130.2564,4124.1026,4123.0769,4123.5897,4125.641,4114.359,4146.6667,4121.5385,4132.8205
4139.4872,4131.2821,4142.0513,4138.4615,4125.1282,4133.3333,4124.1026,4124.6154,4112.8205,4150.7692,4123.5897,4137.9487
4143.0769,4131.2821,4141.5385,4138.9744,4127.6923,4134.8718,4126.1538,4122.0513,4109.7436,4152.3077,4123.5897,4144.1026
4140.5128,4128.7179,4140.5128,4133.8462,4130.7692,4128.2051,4129.7436,4128.2051,4108.7179,4146.6667,4123.5897,4139.4872
4139.4872,4129.2308,4140.5128,4134.8718,4134.359,4130.7692,4129.2308,4131.2821,4120,4145.641,4123.5897,4138.9744
4146.1538,4128.2051,4142.0513,4138.4615,4134.8718,4137.4359,4127.6923,4127.6923,4127.1795,4148.7179,4124.1026,4146.6667
4149.7436,4125.641,4143.5897,4134.8718,4131.2821,4136.4103,4129.7436,4131.2821,4123.5897,4149.7436,4123.5897,4148.7179
4143.0769,4128.2051,4140,4129.7436,4129.7436,4133.3333,4134.359,4133.8462,4124.1026,4149.2308,4122.5641,4141.0256
4138.4615,4127.6923,4134.359,4129.7436,4131.2821,4136.4103,4137.9487,4127.1795,4128.2051,4147.6923,4121.0256,4136.9231
4140.5128,4126.1538,4135.3846,4135.3846,4130.2564,4136.9231,4137.4359,4122.5641,4124.1026,4147.1795,4117.4359,4139.4872
4140.5128,4128.7179,4136.9231,4138.4615,4127.6923,4135.3846,4137.4359,4124.6154,4118.4615,4146.6667,4112.3077,4138.4615
4134.359,4125.641,4130.2564,4129.7436,4129.2308,4135.3846,4138.4615,4125.641,4119.4872,4143.5897,4107.1795,4133.3333
4136.9231,4126.6667,4131.7949,4123.5897,4131.2821,4135.8974,4137.9487,4128.7179,4125.641,4148.7179,4111.2821,4136.9231
4147.6923,4129.7436,4146.1538,4133.3333,4132.3077,4139.4872,4142.5641,4137.9487,4128.2051,4158.9744,4121.0256,4147.1795
4151.2821,4129.7436,4156.9231,4142.0513,4137.9487,4146.1538,4152.8205,4147.6923,4126.6667,4164.1026,4124.1026,4152.8205
4151.2821,4130.2564,4156.4103,4138.4615,4139.4872,4144.6154,4151.2821,4152.3077,4132.8205,4165.1282,4124.1026,4154.359
4149.7436,4125.1282,4149.7436,4134.359,4132.8205,4136.4103,4144.6154,4145.641,4135.3846,4163.0769,4123.5897,4150.2564
4144.6154,4123.0769,4146.1538,4134.8718,4129.7436,4136.9231,4145.1282,4135.8974,4128.7179,4164.1026,4116.4103,4145.641
4141.0256,4126.1538,4148.7179,4135.3846,4133.3333,4143.0769,4147.1795,4135.3846,4127.1795,4163.0769,4108.2051,4148.7179
4144.1026,4130.2564,4153.8462,4137.4359,4138.4615,4141.5385,4148.7179,4140.5128,4134.359,4163.5897,4111.7949,4151.2821
4147.6923,4128.7179,4154.8718,4138.9744,4137.9487,4136.9231,4148.2051,4144.6154,4137.4359,4165.1282,4114.359,4150.2564
4146.1538,4122.5641,4150.7692,4136.9231,4133.8462,4137.9487,4140.5128,4141.5385,4131.7949,4162.5641,4109.2308,4146.6667
4144.1026,4125.1282,4151.2821,4132.8205,4134.359,4136.4103,4135.8974,4134.8718,4133.8462,4165.1282,4111.2821,4147.1795
4138.9744,4126.6667,4149.2308,4128.2051,4133.3333,4133.8462,4140.5128,4135.8974,4135.8974,4163.0769,4116.4103,4144.6154
4135.3846,4118.9744,4141.0256,4124.1026,4128.7179,4133.8462,4141.5385,4140.5128,4128.7179,4154.8718,4110.2564,4135.8974
4136.4103,4118.4615,4143.0769,4123.5897,4128.7179,4134.8718,4137.9487,4140.5128,4121.0256,4155.3846,4102.5641,4131.2821
4136.9231,4123.0769,4149.7436,4131.2821,4131.7949,4137.9487,4141.0256,4141.5385,4124.1026,4162.5641,4113.8462,4136.9231
4139.4872,4124.6154,4147.6923,4140.5128,4133.3333,4139.4872,4144.1026,4142.5641,4132.3077,4163.0769,4122.0513,4144.6154
4139.4872,4120.5128,4142.0513,4135.3846,4130.7692,4134.8718,4141.0256,4138.9744,4128.7179,4157.4359,4112.3077,4140
4135.8974,4119.4872,4139.4872,4124.1026,4126.1538,4131.7949,4136.4103,4136.9231,4122.0513,4154.359,4106.6667,4135.3846
4133.3333,4124.1026,4138.4615,4122.0513,4126.1538,4131.7949,4136.4103,4139.4872,4124.6154,4152.8205,4110.2564,4135.3846
4135.3846,4121.0256,4135.8974,4121.0256,4127.6923,4129.2308,4139.4872,4140,4126.1538,4149.2308,4108.7179,4134.8718
4138.4615,4121.5385,4141.5385,4120.5128,4128.2051,4131.7949,4139.4872,4140.5128,4127.1795,4154.8718,4109.2308,4140
4139.4872,4123.5897,4148.7179,4123.5897,4126.1538,4132.3077,4136.4103,4141.0256,4133.3333,4160.5128,4112.8205,4142.0513
4136.9231,4119.4872,4144.6154,4120,4124.6154,4126.6667,4134.359,4138.4615,4132.3077,4155.3846,4109.7436,4134.8718
4136.9231,4123.0769,4141.5385,4116.9231,4123.5897,4129.2308,4134.359,4134.8718,4127.1795,4154.8718,4113.3333,4134.359
4140.5128,4125.641,4146.1538,4122.0513,4124.6154,4138.4615,4137.4359,4140,4134.359,4159.4872,4124.6154,4138.4615
4138.4615,4122.0513,4147.6923,4120.5128,4128.7179,4141.0256,4142.0513,4149.7436,4139.4872,4157.9487,4118.9744,4137.4359
4130.2564,4120,4139.4872,4108.2051,4128.7179,4135.8974,4141.5385,4147.6923,4126.6667,4152.8205,4103.0769,4132.8205
4130.7692,4122.0513,4134.8718,4105.1282,4122.5641,4131.2821,4135.8974,4141.5385,4123.0769,4150.7692,4102.0513,4133.3333
4140,4127.1795,4141.0256,4116.9231,4124.1026,4133.3333,4135.3846,4142.5641,4132.8205,4154.359,4111.2821,4137.4359
4140,4124.6154,4144.6154,4124.1026,4129.7436,4134.359,4136.9231,4142.5641,4129.7436,4152.3077,4111.2821,4137.9487
4133.3333,4124.1026,4140,4122.0513,4127.6923,4125.641,4134.8718,4137.4359,4121.0256,4151.2821,4107.6923,4135.8974
4136.4103,4127.6923,4135.3846,4120.5128,4124.6154,4122.5641,4135.3846,4141.0256,4122.5641,4156.4103,4110.2564,4135.8974
4135.3846,4126.1538,4133.8462,4119.4872,4126.6667,4126.6667,4138.4615,4146.1538,4126.6667,4155.3846,4113.3333,4132.3077
4125.641,4124.1026,4132.3077,4118.4615,4127.6923,4127.6923,4135.3846,4140.5128,4125.1282,4147.6923,4110.7692,4128.7179
4127.6923,4124.6154,4133.3333,4120,4126.1538,4133.8462,4134.359,4139.4872,4123.5897,4145.641,4110.2564,4131.2821
4135.8974,4126.1538,4135.8974,4125.641,4126.1538,4140,4135.8974,4142.5641,4126.1538,4151.2821,4112.8205,4134.359
4131.7949,4124.1026,4134.8718,4125.641,4129.7436,4136.4103,4129.7436,4136.4103,4124.1026,4148.2051,4111.2821,4131.7949
4124.1026,4120.5128,4129.7436,4122.5641,4129.2308,4135.8974,4127.6923,4132.8205,4120,4139.4872,4106.6667,4127.1795
4127.1795,4125.1282,4132.8205,4120.5128,4128.2051,4141.0256,4135.8974,4137.9487,4120,4143.5897,4106.1538,4128.2051
4133.8462,4127.1795,4140.5128,4122.0513,4127.6923,4142.5641,4141.0256,4144.1026,4122.0513,4148.7179,4115.8974,4132.8205
4137.4359,4127.1795,4142.0513,4125.1282,4127.6923,4136.4103,4136.4103,4144.1026,4123.0769,4150.2564,4120.5128,4132.8205
4137.4359,4128.7179,4137.9487,4125.1282,4127.1795,4133.3333,4128.7179,4140,4124.1026,4150.7692,4115.3846,4132.3077
4133.8462,4124.6154,4133.8462,4123.5897,4132.3077,4137.4359,4129.7436,4138.9744,4122.5641,4146.6667,4117.4359,4131.7949
4134.8718,4123.5897,4137.4359,4124.6154,4139.4872,4138.9744,4133.3333,4140,4122.0513,4146.1538,4123.5897,4133.8462
4135.8974,4125.641,4137.9487,4128.2051,4137.9487,4135.8974,4132.8205,4140,4123.5897,4147.6923,4121.5385,4134.359
4133.8462,4122.5641,4131.2821,4128.2051,4134.359,4133.8462,4132.3077,4137.4359,4120,4142.5641,4117.4359,4131.7949
4135.3846,4121.0256,4130.2564,4125.641,4135.8974,4137.4359,4137.4359,4135.3846,4119.4872,4138.9744,4121.0256,4131.7949
4133.8462,4121.5385,4133.3333,4123.5897,4131.2821,4140,4138.9744,4137.4359,4125.1282,4142.5641,4118.4615,4132.3077
4127.1795,4123.5897,4132.3077,4123.0769,4126.6667,4137.4359,4135.3846,4140,4126.1538,4147.1795,4110.2564,4130.7692
4127.1795,4121.5385,4130.2564,4122.5641,4130.2564,4136.4103,4135.3846,4137.9487,4120,4145.1282,4113.8462,4127.6923
4135.8974,4121.5385,4137.4359,4122.0513,4136.4103,4137.4359,4135.8974,4141.0256,4119.4872,4147.6923,4122.5641,4131.7949
4140.5128,4127.1795,4142.0513,4126.1538,4136.9231,4136.4103,4136.9231,4148.2051,4130.7692,4152.3077,4122.5641,4136.9231
4137.4359,4126.1538,4136.4103,4129.7436,4134.359,4137.9487,4140,4143.5897,4133.8462,4148.7179,4119.4872,4136.9231
4137.9487,4122.5641,4133.3333,4126.6667,4133.8462,4138.4615,4136.4103,4135.8974,4125.1282,4144.6154,4123.5897,4138.4615
4138.4615,4122.5641,4134.8718,4124.1026,4134.359,4133.3333,4130.2564,4137.4359,4127.1795,4144.1026,4123.5897,4137.4359
4137.9487,4123.0769,4140.5128,4125.641,4135.8974,4132.3077,4132.3077,4140.5128,4135.8974,4147.1795,4123.5897,4137.9487
4140.5128,4126.1538,4142.5641,4124.6154,4137.4359,4136.9231,4133.3333,4141.5385,4129.7436,4150.7692,4133.3333,4141.5385
4139.4872,4121.5385,4134.8718,4122.5641,4133.8462,4138.4615,4131.2821,4141.0256,4118.4615,4143.5897,4133.8462,4135.3846
4133.8462,4117.9487,4131.2821,4122.5641,4127.1795,4136.4103,4133.3333,4138.9744,4122.0513,4138.4615,4124.6154,4128.7179
4131.7949,4122.5641,4134.8718,4122.0513,4122.5641,4134.359,4131.2821,4139.4872,4125.1282,4140.5128,4122.0513,4132.8205
4131.2821,4125.641,4130.7692,4120.5128,4123.0769,4130.7692,4123.5897,4137.4359,4121.0256,4137.9487,4125.1282,4132.3077
4129.7436,4125.641,4128.2051,4122.0513,4123.5897,4125.1282,4121.5385,4129.7436,4123.0769,4134.359,4124.1026,4126.6667
4131.7949,4123.5897,4129.2308,4121.5385,4123.0769,4122.5641,4122.5641,4126.1538,4124.6154,4132.3077,4123.0769,4128.2051
4131.7949,4125.641,4127.6923,4115.3846,4124.1026,4123.5897,4121.5385,4125.1282,4120.5128,4131.7949,4124.1026,4129.7436
4123.5897,4127.6923,4127.1795,4111.7949,4122.0513,4123.5897,4121.0256,4122.0513,4117.4359,4129.2308,4121.5385,4122.0513
4117.9487,4126.6667,4128.2051,4114.359,4121.5385,4122.5641,4118.9744,4120,4115.8974,4127.6923,4120,4116.4103
4128.2051,4130.7692,4132.3077,4120,4125.1282,4130.7692,4127.1795,4128.7179,4119.4872,4132.8205,4123.0769,4125.641
4133.3333,4129.7436,4135.3846,4121.0256,4126.6667,4141.5385,4138.9744,4137.9487,4121.5385,4133.8462,4124.6154,4129.7436
4125.641,4125.641,4130.7692,4117.9487,4124.1026,4136.4103,4132.3077,4133.3333,4116.4103,4129.2308,4122.5641,4123.0769
4128.2051,4126.1538,4128.7179,4116.9231,4122.0513,4124.6154,4120.5128,4123.0769,4117.4359,4128.2051,4128.2051,4125.1282
4135.3846,4128.2051,4132.8205,4118.4615,4122.5641,4128.7179,4123.0769,4126.6667,4125.1282,4134.359,4140,4133.3333
4129.7436,4129.2308,4131.2821,4120,4124.6154,4134.359,4126.6667,4135.3846,4123.0769,4135.3846,4136.4103,4128.2051
4118.4615,4126.1538,4122.5641,4117.9487,4127.6923,4131.2821,4124.1026,4136.9231,4115.3846,4126.1538,4121.5385,4116.9231
4122.0513,4127.1795,4124.6154,4120,4128.7179,4131.2821,4124.6154,4136.9231,4114.8718,4127.1795,4125.1282,4121.5385
4133.8462,4131.2821,4132.8205,4124.1026,4129.7436,4131.7949,4124.6154,4132.3077,4118.9744,4136.9231,4135.3846,4128.7179
4134.8718,4124.6154,4131.2821,4124.6154,4129.7436,4132.3077,4123.5897,4125.1282,4117.4359,4136.9231,4129.7436,4125.641
4126.1538,4120,4126.1538,4120.5128,4129.2308,4132.8205,4122.0513,4122.0513,4109.7436,4131.2821,4120,4122.0513
4121.0256,4123.0769,4125.1282,4117.4359,4130.2564,4131.2821,4122.5641,4125.641,4108.2051,4130.7692,4122.0513,4121.5385
4125.641,4125.1282,4127.6923,4119.4872,4134.8718,4132.8205,4131.7949,4135.3846,4119.4872,4133.8462,4125.641,4123.0769
4124.6154,4125.641,4128.7179,4119.4872,4137.9487,4138.4615,4134.8718,4140,4124.1026,4133.3333,4123.0769,4122.0513
4120,4127.1795,4127.6923,4117.9487,4137.4359,4140.5128,4127.1795,4134.359,4117.4359,4129.7436,4124.6154,4119.4872
4128.7179,4132.8205,4134.359,4123.0769,4138.9744,4138.9744,4123.0769,4128.2051,4120.5128,4135.8974,4135.8974,4124.6154
4136.4103,4132.8205,4134.8718,4127.1795,4140.5128,4137.4359,4125.641,4127.6923,4126.1538,4138.4615,4142.5641,4130.7692
4129.2308,4129.2308,4124.6154,4119.4872,4135.3846,4136.4103,4124.6154,4131.2821,4116.4103,4130.2564,4132.3077,4126.6667
4121.0256,4131.2821,4123.5897,4114.359,4130.7692,4135.8974,4125.1282,4133.3333,4113.3333,4128.2051,4121.5385,4120.5128
4123.0769,4125.641,4128.7179,4118.9744,4128.7179,4131.2821,4124.6154,4128.2051,4121.0256,4130.7692,4122.5641,4120.5128
4127.1795,4123.0769,4128.7179,4122.0513,4130.7692,4123.0769,4120,4120,4119.4872,4131.2821,4125.641,4123.0769
4133.8462,4130.2564,4130.2564,4120.5128,4133.8462,4125.1282,4126.1538,4122.5641,4115.3846,4132.8205,4124.1026,4127.6923
4138.4615,4132.3077,4135.3846,4121.0256,4137.4359,4133.8462,4136.9231,4132.3077,4120.5128,4135.3846,4122.5641,4130.7692
4134.359,4127.1795,4135.8974,4123.0769,4138.9744,4133.3333,4138.9744,4136.9231,4123.5897,4136.9231,4122.5641,4130.2564
4130.2564,4124.6154,4134.359,4118.4615,4135.8974,4128.7179,4136.9231,4138.9744,4123.5897,4134.359,4123.0769,4126.6667
4129.2308,4126.1538,4135.8974,4112.3077,4136.9231,4131.7949,4136.9231,4137.4359,4128.2051,4134.8718,4125.641,4127.1795
4125.641,4126.6667,4132.8205,4113.8462,4139.4872,4137.9487,4138.9744,4133.8462,4125.641,4134.359,4122.0513,4125.641
4122.5641,4126.1538,4128.7179,4119.4872,4138.4615,4138.9744,4142.5641,4134.359,4119.4872,4132.8205,4112.3077,4121.5385
4123.5897,4129.2308,4129.2308,4121.5385,4139.4872,4138.9744,4143.0769,4136.4103,4124.6154,4135.8974,4109.7436,4123.0769
4121.0256,4128.7179,4126.6667,4120.5128,4140.5128,4138.9744,4137.4359,4130.7692,4126.1538,4132.8205,4111.7949,4120.5128
4120,4128.2051,4124.1026,4116.9231,4136.9231,4133.3333,4135.3846,4124.6154,4117.4359,4128.2051,4110.2564,4115.3846
4122.0513,4127.6923,4122.0513,4109.2308,4133.8462,4128.2051,4135.8974,4126.6667,4111.2821,4128.2051,4108.7179,4114.8718
4118.4615,4126.1538,4117.4359,4106.1538,4133.3333,4125.641,4130.7692,4125.641,4107.6923,4123.0769,4107.1795,4113.3333
4117.9487,4130.2564,4118.9744,4116.4103,4134.8718,4125.1282,4124.6154,4119.4872,4106.6667,4117.9487,4108.2051,4115.8974
4123.0769,4130.2564,4123.0769,4120.5128,4135.3846,4124.6154,4124.1026,4118.4615,4113.8462,4122.5641,4111.7949,4121.5385
4123.0769,4128.2051,4122.0513,4110.2564,4132.3077,4121.0256,4130.2564,4125.1282,4119.4872,4128.7179,4111.7949,4120
4124.6154,4128.2051,4124.6154,4109.7436,4133.3333,4122.5641,4136.9231,4134.8718,4120,4130.2564,4111.7949,4117.4359
4132.8205,4128.2051,4131.7949,4121.5385,4137.4359,4132.3077,4138.9744,4139.4872,4126.6667,4133.8462,4121.5385,4126.1538
4132.3077,4130.7692,4132.3077,4123.5897,4135.3846,4132.8205,4137.4359,4137.9487,4135.8974,4138.9744,4127.1795,4130.2564
4123.5897,4127.6923,4126.6667,4112.8205,4129.7436,4129.2308,4138.4615,4137.4359,4128.7179,4133.8462,4116.4103,4121.0256
4122.5641,4121.5385,4125.641,4107.1795,4131.2821,4134.359,4140,4137.9487,4119.4872,4128.2051,4106.1538,4116.4103
4125.641,4125.1282,4130.7692,4113.8462,4136.4103,4139.4872,4138.4615,4137.4359,4128.7179,4131.7949,4109.2308,4121.0256
4127.1795,4129.2308,4134.359,4118.4615,4133.3333,4136.9231,4138.9744,4137.4359,4134.359,4132.8205,4112.8205,4123.5897
4126.1538,4127.1795,4131.2821,4112.3077,4127.1795,4134.359,4140,4139.4872,4125.641,4128.2051,4107.1795,4121.0256
4121.5385,4122.5641,4122.0513,4104.1026,4126.6667,4134.359,4140.5128,4140,4118.4615,4121.0256,4105.641,4116.9231
4120.5128,4122.5641,4123.5897,4108.2051,4126.6667,4133.8462,4140.5128,4138.4615,4124.6154,4124.6154,4116.9231,4119.4872
4124.6154,4127.6923,4130.7692,4119.4872,4128.7179,4135.3846,4140,4137.9487,4135.8974,4134.359,4124.1026,4123.5897
4121.5385,4126.6667,4126.1538,4118.9744,4129.7436,4137.9487,4135.8974,4137.4359,4131.7949,4129.2308,4119.4872,4118.9744
4118.4615,4125.1282,4122.5641,4111.2821,4128.7179,4133.8462,4132.3077,4135.8974,4126.1538,4126.1538,4118.4615,4114.8718
4122.5641,4124.1026,4126.6667,4113.8462,4129.2308,4127.1795,4134.359,4137.4359,4133.8462,4130.7692,4124.1026,4117.4359
4122.0513,4121.0256,4123.5897,4119.4872,4133.3333,4130.2564,4138.9744,4138.9744,4138.9744,4128.2051,4124.1026,4118.4615
4117.9487,4124.6154,4117.4359,4115.8974,4132.8205,4133.3333,4134.359,4134.359,4132.3077,4118.9744,4120.5128,4117.4359
4117.9487,4123.5897,4119.4872,4110.7692,4127.6923,4128.2051,4125.1282,4131.2821,4128.7179,4114.8718,4117.4359,4114.359
4119.4872,4123.0769,4127.6923,4112.8205,4131.2821,4127.1795,4128.7179,4135.8974,4133.3333,4121.0256,4112.3077,4114.8718
4118.4615,4124.1026,4126.6667,4109.7436,4134.8718,4130.2564,4133.8462,4137.4359,4133.3333,4125.1282,4108.2051,4116.4103
4119.4872,4121.0256,4122.5641,4105.641,4130.7692,4124.6154,4126.6667,4134.8718,4134.8718,4127.6923,4107.6923,4116.4103
4122.5641,4122.5641,4128.7179,4109.2308,4129.7436,4124.1026,4123.0769,4137.4359,4138.9744,4132.3077,4110.7692,4118.4615
4121.5385,4125.1282,4130.7692,4111.2821,4132.3077,4130.2564,4127.6923,4137.9487,4136.9231,4128.7179,4111.2821,4119.4872
4121.0256,4125.641,4125.641,4109.2308,4133.8462,4128.2051,4127.6923,4135.8974,4135.3846,4128.2051,4109.7436,4120
4121.5385,4125.641,4123.0769,4107.6923,4134.8718,4124.6154,4127.1795,4135.3846,4140,4131.7949,4114.359,4121.5385
4118.9744,4125.1282,4123.5897,4111.2821,4134.359,4125.1282,4127.1795,4131.7949,4144.1026,4129.2308,4120,4120
4119.4872,4127.1795,4124.6154,4110.2564,4129.2308,4125.1282,4123.5897,4125.1282,4146.6667,4128.7179,4121.0256,4118.4615
4118.9744,4125.1282,4122.0513,4105.1282,4124.6154,4122.5641,4123.0769,4123.5897,4148.2051,4127.6923,4115.8974,4117.9487
4113.8462,4125.641,4117.9487,4105.641,4126.6667,4121.5385,4124.6154,4125.1282,4143.5897,4124.1026,4110.7692,4114.359
4115.8974,4128.2051,4117.4359,4108.2051,4126.1538,4124.6154,4126.6667,4126.6667,4134.8718,4124.1026,4114.359,4113.3333
4122.5641,4126.1538,4121.0256,4107.6923,4124.6154,4125.641,4131.2821,4128.2051,4135.8974,4126.1538,4122.5641,4120.5128
4123.5897,4125.641,4124.1026,4107.1795,4126.1538,4122.5641,4129.2308,4124.1026,4138.4615,4126.6667,4123.5897,4123.5897
4123.5897,4125.641,4126.1538,4107.6923,4127.6923,4123.0769,4125.1282,4121.0256,4134.359,4128.7179,4122.0513,4119.4872
4124.6154,4124.6154,4127.6923,4109.2308,4128.7179,4125.641,4126.1538,4129.7436,4134.8718,4132.8205,4124.6154,4120
4122.0513,4125.1282,4123.5897,4107.1795,4126.1538,4123.5897,4125.641,4136.4103,4137.9487,4129.2308,4126.1538,4118.4615
4126.6667,4127.1795,4122.0513,4108.2051,4124.1026,4128.7179,4128.7179,4135.8974,4137.4359,4126.6667,4132.8205,4116.9231
4136.9231,4131.2821,4128.7179,4117.9487,4131.2821,4137.4359,4137.9487,4138.4615,4144.1026,4134.8718,4143.5897,4125.641
4130.2564,4125.641,4129.2308,4118.4615,4132.3077,4133.3333,4136.4103,4141.0256,4146.1538,4133.8462,4141.5385,4125.1282
4116.4103,4119.4872,4123.0769,4107.6923,4124.6154,4125.1282,4126.6667,4133.3333,4133.8462,4124.1026,4130.7692,4114.359
4115.8974,4122.0513,4118.4615,4103.5897,4127.6923,4126.1538,4124.6154,4123.5897,4124.6154,4122.0513,4125.1282,4112.3077
4121.0256,4123.5897,4117.4359,4106.1538,4133.3333,4128.7179,4128.7179,4123.5897,4125.641,4124.1026,4123.5897,4115.3846
4122.0513,4123.0769,4118.9744,4106.1538,4130.7692,4125.1282,4126.1538,4124.1026,4127.6923,4125.1282,4125.1282,4116.4103
4120.5128,4123.0769,4120.5128,4112.3077,4128.2051,4124.6154,4124.6154,4121.5385,4126.1538,4123.5897,4130.2564,4116.4103
4123.5897,4124.1026,4124.6154,4120,4135.8974,4131.2821,4131.7949,4121.0256,4130.7692,4127.6923,4137.4359,4123.0769
4132.8205,4126.1538,4133.3333,4118.4615,4141.0256,4136.4103,4135.3846,4125.641,4138.9744,4134.8718,4142.5641,4133.8462
4134.359,4126.1538,4130.2564,4116.9231,4136.4103,4135.8974,4131.7949,4134.359,4141.0256,4132.8205,4143.5897,4132.3077
4131.2821,4127.6923,4123.5897,4120.5128,4132.3077,4134.8718,4132.3077,4136.4103,4139.4872,4128.2051,4141.5385,4127.1795
4134.8718,4129.2308,4129.2308,4124.6154,4131.7949,4133.8462,4132.3077,4128.2051,4138.4615,4129.7436,4138.9744,4132.8205
4140.5128,4124.6154,4136.4103,4118.4615,4128.2051,4128.7179,4124.6154,4123.5897,4136.9231,4133.3333,4141.5385,4136.9231
4138.4615,4122.0513,4133.3333,4110.7692,4127.6923,4123.0769,4120,4125.1282,4134.8718,4131.7949,4140,4131.2821
4135.8974,4122.0513,4131.7949,4111.2821,4129.7436,4122.0513,4121.5385,4127.6923,4134.8718,4130.2564,4141.5385,4133.3333
4140.5128,4127.1795,4140.5128,4117.4359,4128.2051,4124.6154,4120,4135.8974,4138.4615,4133.8462,4151.7949,4141.0256
4145.641,4127.1795,4142.5641,4121.5385,4130.7692,4126.6667,4121.5385,4141.0256,4139.4872,4134.359,4153.8462,4139.4872
4142.5641,4123.0769,4133.8462,4121.0256,4135.8974,4125.641,4125.641,4131.2821,4131.2821,4132.8205,4143.5897,4133.8462
4134.359,4124.6154,4124.6154,4113.8462,4130.2564,4122.5641,4117.9487,4119.4872,4122.5641,4126.1538,4135.8974,4126.1538
4132.8205,4121.5385,4122.0513,4106.6667,4121.5385,4121.5385,4111.2821,4118.9744,4121.0256,4115.3846,4134.8718,4116.9231
4135.8974,4121.0256,4127.6923,4112.3077,4125.641,4123.0769,4118.9744,4121.5385,4123.5897,4120.5128,4137.4359,4121.0256
4135.8974,4127.1795,4130.7692,4116.9231,4128.7179,4124.6154,4121.5385,4121.5385,4125.1282,4131.7949,4140.5128,4131.2821
4133.3333,4126.1538,4127.1795,4108.7179,4122.5641,4123.0769,4110.2564,4118.9744,4122.0513,4129.2308,4131.2821,4129.2308
4136.4103,4124.1026,4128.2051,4104.6154,4122.0513,4121.5385,4105.1282,4117.4359,4120,4127.1795,4124.6154,4128.2051
4137.9487,4125.641,4132.3077,4108.2051,4126.1538,4122.5641,4110.2564,4120,4127.1795,4130.2564,4133.8462,4134.8718
4138.9744,4130.7692,4132.8205,4109.2308,4126.1538,4123.5897,4111.2821,4122.0513,4136.9231,4132.3077,4139.4872,4138.4615
4146.6667,4131.7949,4134.359,4109.2308,4127.1795,4124.6154,4112.8205,4124.1026,4137.9487,4134.8718,4139.4872,4144.6154
4150.7692,4126.6667,4141.0256,4112.3077,4131.2821,4128.2051,4117.4359,4127.6923,4136.9231,4134.8718,4143.5897,4150.7692
4141.5385,4121.5385,4142.5641,4109.2308,4129.2308,4126.6667,4121.0256,4127.6923,4136.9231,4134.359,4142.5641,4143.5897
4133.8462,4116.9231,4134.359,4103.0769,4123.5897,4126.6667,4125.1282,4129.7436,4136.4103,4136.4103,4137.4359,4133.3333
4137.9487,4118.4615,4134.8718,4105.1282,4124.6154,4130.7692,4125.1282,4135.3846,4138.9744,4140.5128,4138.4615,4138.4615
4140.5128,4121.5385,4141.0256,4107.6923,4127.6923,4129.7436,4122.0513,4136.4103,4141.0256,4141.5385,4143.5897,4140.5128
4138.4615,4117.9487,4136.9231,4103.0769,4125.641,4124.1026,4121.5385,4135.3846,4137.4359,4140.5128,4148.7179,4134.8718
4138.9744,4122.5641,4133.8462,4105.641,4125.641,4124.6154,4123.5897,4142.0513,4139.4872,4140.5128,4155.3846,4137.9487
4135.3846,4127.6923,4134.8718,4107.6923,4127.1795,4127.6923,4125.1282,4148.2051,4142.0513,4138.4615,4153.3333,4137.4359
4128.7179,4123.0769,4129.2308,4098.9744,4125.641,4126.1538,4122.5641,4143.0769,4134.359,4135.3846,4143.0769,4126.6667
4125.641,4120.5128,4128.2051,4097.9487,4122.0513,4123.5897,4122.5641,4138.9744,4130.2564,4131.7949,4136.9231,4125.1282
4124.6154,4123.0769,4130.2564,4102.5641,4123.0769,4124.6154,4126.1538,4142.0513,4131.2821,4128.2051,4136.4103,4130.2564
4124.6154,4126.1538,4129.2308,4100.5128,4127.6923,4125.641,4126.1538,4141.5385,4128.7179,4128.7179,4130.7692,4126.6667
4124.6154,4122.5641,4127.6923,4101.5385,4125.1282,4125.1282,4122.0513,4135.8974,4129.7436,4127.1795,4126.6667,4120.5128
4124.1026,4120,4126.6667,4105.1282,4123.5897,4125.641,4122.0513,4134.8718,4131.2821,4128.2051,4135.8974,4122.5641
4123.5897,4123.5897,4128.7179,4102.5641,4128.7179,4127.6923,4126.1538,4138.9744,4132.8205,4133.3333,4135.3846,4124.6154
4120.5128,4121.5385,4132.3077,4097.4359,4128.2051,4125.641,4124.6154,4140,4136.9231,4131.2821,4127.1795,4120
4117.4359,4120,4130.7692,4093.8462,4122.5641,4121.0256,4119.4872,4132.8205,4133.8462,4129.2308,4133.8462,4117.4359
4129.2308,4122.0513,4127.6923,4092.8205,4122.0513,4120.5128,4118.4615,4124.1026,4125.641,4130.7692,4135.8974,4125.1282
4139.4872,4122.5641,4131.2821,4095.3846,4122.0513,4121.5385,4122.0513,4124.6154,4126.6667,4126.6667,4126.6667,4134.8718
