"AF3","F7","F3","FC5","T7","P7","O1","O2","FC6","F4","F8","AF4"
4138.9744,4126.6667,4123.5897,4137.4359,4148.7179,4126.6667,4122.0513,4129.2308,4144.6154,4138.9744,4139.4872,4133.8462
4141.0256,4126.6667,4127.6923,4136.4103,4143.5897,4126.6667,4120.5128,4134.359,4149.2308,4144.6154,4140,4138.4615
4144.1026,4125.641,4130.7692,4136.4103,4142.0513,4124.1026,4121.5385,4141.5385,4148.7179,4144.6154,4142.0513,4143.0769
4140,4123.5897,4127.6923,4136.9231,4143.0769,4122.0513,4121.5385,4129.7436,4141.0256,4137.9487,4137.4359,4138.9744
4132.3077,4123.5897,4122.0513,4128.7179,4138.4615,4121.0256,4113.8462,4106.6667,4136.4103,4131.2821,4125.641,4131.2821
4131.2821,4125.641,4120.5128,4126.6667,4135.8974,4118.9744,4107.6923,4106.6667,4139.4872,4133.8462,4123.0769,4132.3077
4134.8718,4125.641,4122.5641,4135.3846,4143.0769,4119.4872,4113.3333,4124.1026,4143.5897,4133.3333,4130.2564,4134.8718
4137.4359,4126.1538,4123.0769,4138.4615,4145.1282,4124.1026,4122.0513,4132.8205,4145.641,4130.7692,4136.9231,4137.9487
4142.5641,4129.2308,4126.6667,4137.4359,4141.0256,4125.641,4124.6154,4136.4103,4148.7179,4137.9487,4140,4143.0769
4150.7692,4127.1795,4135.3846,4142.5641,4144.6154,4123.0769,4122.0513,4138.4615,4151.2821,4148.7179,4140,4146.6667
4154.8718,4123.5897,4139.4872,4144.6154,4149.2308,4124.6154,4122.5641,4137.9487,4151.2821,4150.7692,4140.5128,4146.6667
4151.7949,4125.641,4135.3846,4140,4144.1026,4126.6667,4126.6667,4136.4103,4149.2308,4147.1795,4140.5128,4144.1026
4151.7949,4125.641,4135.8974,4138.9744,4138.4615,4125.641,4130.7692,4136.9231,4152.8205,4153.8462,4140.5128,4149.2308
4153.8462,4123.0769,4143.5897,4144.1026,4142.5641,4131.2821,4134.8718,4138.9744,4158.4615,4163.0769,4141.0256,4154.8718
4152.8205,4124.1026,4140,4143.0769,4147.1795,4133.8462,4136.9231,4140,4155.8974,4155.8974,4138.4615,4150.2564
4152.3077,4124.6154,4136.9231,4137.4359,4148.2051,4126.1538,4135.3846,4143.0769,4154.8718,4150.2564,4140,4146.1538
4153.8462,4126.1538,4145.641,4144.1026,4152.8205,4128.2051,4137.9487,4151.7949,4164.1026,4161.0256,4151.2821,4152.8205
4156.9231,4127.1795,4151.2821,4152.8205,4154.8718,4138.4615,4141.5385,4156.4103,4172.3077,4172.3077,4159.4872,4160
4155.3846,4124.6154,4145.641,4147.6923,4150.2564,4137.9487,4138.9744,4152.8205,4170.7692,4167.1795,4156.4103,4155.8974
4149.2308,4122.0513,4139.4872,4139.4872,4142.5641,4133.3333,4137.4359,4147.1795,4163.0769,4154.359,4147.1795,4148.2051
4149.7436,4123.0769,4138.9744,4140.5128,4139.4872,4133.8462,4134.359,4141.5385,4156.9231,4151.2821,4141.5385,4147.6923
4150.2564,4124.1026,4135.8974,4141.0256,4141.5385,4132.8205,4127.1795,4133.3333,4153.3333,4151.7949,4140,4148.2051
4141.0256,4123.5897,4128.7179,4136.9231,4141.5385,4127.6923,4122.0513,4124.6154,4150.2564,4148.2051,4140,4142.0513
4133.3333,4122.0513,4124.1026,4135.3846,4139.4872,4122.5641,4121.5385,4124.6154,4151.2821,4143.0769,4138.4615,4136.4103
4135.3846,4122.5641,4124.6154,4134.8718,4140.5128,4124.6154,4124.1026,4135.3846,4149.7436,4149.7436,4137.9487,4137.9487
4139.4872,4127.6923,4131.7949,4136.4103,4143.0769,4132.8205,4129.7436,4142.5641,4147.1795,4158.9744,4139.4872,4142.0513
4141.0256,4128.2051,4138.9744,4140.5128,4142.5641,4135.8974,4135.8974,4142.5641,4147.6923,4151.7949,4138.9744,4143.0769
4140,4124.6154,4140.5128,4141.5385,4143.0769,4134.8718,4137.9487,4145.1282,4146.6667,4140,4142.0513,4144.1026
4140,4124.6154,4136.9231,4137.4359,4146.1538,4137.4359,4137.4359,4144.6154,4143.5897,4139.4872,4148.2051,4145.641
4147.6923,4128.2051,4140.5128,4138.4615,4145.641,4135.8974,4136.4103,4138.4615,4144.6154,4148.2051,4151.7949,4149.2308
4153.8462,4129.7436,4145.641,4145.1282,4143.0769,4129.2308,4137.4359,4137.4359,4150.2564,4155.8974,4155.8974,4156.9231
4144.6154,4126.1538,4140.5128,4143.0769,4142.0513,4130.7692,4137.9487,4138.4615,4144.1026,4148.2051,4153.3333,4153.8462
4133.8462,4123.5897,4133.3333,4136.4103,4141.5385,4135.8974,4135.3846,4135.8974,4131.2821,4137.4359,4140,4138.9744
4136.4103,4123.0769,4135.8974,4136.4103,4138.9744,4136.9231,4136.4103,4137.9487,4132.3077,4142.0513,4137.4359,4139.4872
4142.0513,4126.1538,4141.0256,4140,4137.4359,4136.4103,4140.5128,4143.0769,4144.1026,4147.6923,4146.6667,4149.2308
4140.5128,4128.2051,4141.0256,4140.5128,4137.4359,4134.359,4137.4359,4139.4872,4143.5897,4142.0513,4144.1026,4145.641
4136.9231,4124.6154,4138.9744,4141.0256,4138.9744,4133.3333,4131.7949,4135.3846,4132.8205,4138.9744,4135.3846,4138.9744
4139.4872,4128.2051,4141.5385,4143.0769,4141.0256,4136.4103,4135.3846,4139.4872,4140,4145.1282,4139.4872,4149.7436
4144.6154,4135.8974,4146.6667,4142.5641,4141.0256,4137.4359,4138.9744,4141.0256,4155.3846,4151.2821,4149.7436,4159.4872
4142.5641,4130.7692,4144.6154,4140.5128,4146.6667,4134.8718,4138.4615,4138.9744,4153.3333,4147.1795,4151.7949,4149.2308
4140.5128,4128.7179,4140,4140,4154.359,4138.9744,4140.5128,4141.5385,4146.1538,4141.5385,4151.2821,4142.0513
4142.5641,4137.4359,4139.4872,4141.5385,4149.2308,4141.0256,4139.4872,4143.0769,4147.1795,4142.5641,4151.7949,4147.1795
4143.0769,4133.3333,4141.5385,4141.5385,4142.0513,4136.4103,4129.2308,4142.0513,4150.7692,4146.6667,4152.8205,4150.2564
4142.0513,4126.6667,4140.5128,4140.5128,4144.6154,4136.9231,4123.5897,4142.0513,4153.8462,4149.2308,4155.3846,4147.1795
4140.5128,4130.7692,4136.9231,4139.4872,4145.1282,4137.9487,4125.1282,4141.5385,4154.359,4143.0769,4155.3846,4143.5897
4137.9487,4128.7179,4134.8718,4138.9744,4140,4135.3846,4125.1282,4138.4615,4148.7179,4136.4103,4148.7179,4141.5385
4137.9487,4122.0513,4136.4103,4137.9487,4140.5128,4134.359,4124.1026,4139.4872,4146.6667,4139.4872,4143.5897,4140
4140.5128,4125.1282,4140.5128,4137.9487,4145.1282,4136.4103,4124.6154,4143.5897,4152.8205,4146.6667,4151.7949,4140.5128
4144.6154,4126.1538,4140.5128,4138.4615,4144.1026,4135.8974,4124.6154,4141.5385,4154.359,4151.7949,4157.9487,4145.1282
4146.1538,4122.0513,4137.9487,4138.4615,4141.0256,4129.7436,4123.0769,4138.4615,4149.7436,4149.2308,4153.8462,4147.1795
4145.641,4124.1026,4138.4615,4140,4139.4872,4125.1282,4122.0513,4140,4151.7949,4147.6923,4154.359,4145.1282
4140,4124.6154,4138.4615,4139.4872,4138.4615,4128.7179,4121.0256,4138.9744,4148.7179,4145.1282,4155.8974,4140
4136.9231,4123.0769,4135.3846,4135.8974,4140,4135.8974,4121.0256,4135.8974,4135.8974,4137.9487,4151.7949,4136.9231
4140,4126.6667,4136.4103,4137.9487,4142.0513,4137.9487,4128.2051,4141.0256,4138.9744,4139.4872,4153.3333,4140
4139.4872,4128.2051,4137.9487,4141.0256,4145.1282,4136.9231,4136.9231,4145.1282,4151.2821,4143.5897,4156.4103,4138.9744
4136.9231,4124.6154,4137.4359,4135.8974,4143.5897,4137.9487,4137.4359,4140,4152.3077,4144.1026,4158.9744,4137.9487
4142.0513,4124.1026,4138.9744,4133.8462,4138.4615,4136.9231,4129.7436,4137.4359,4150.2564,4148.2051,4166.6667,4141.0256
4141.5385,4126.1538,4136.9231,4137.4359,4143.0769,4135.3846,4124.6154,4137.4359,4147.6923,4148.7179,4166.6667,4140
4134.8718,4124.6154,4133.3333,4133.8462,4149.7436,4138.9744,4128.7179,4136.9231,4142.0513,4138.9744,4157.4359,4136.4103
4133.3333,4123.0769,4128.7179,4124.6154,4144.1026,4140,4136.9231,4141.5385,4137.9487,4131.2821,4154.359,4135.3846
4136.4103,4125.1282,4125.641,4124.1026,4136.9231,4137.9487,4137.9487,4150.7692,4139.4872,4136.9231,4156.4103,4133.8462
4137.9487,4126.6667,4131.2821,4130.7692,4138.4615,4135.8974,4129.7436,4155.8974,4146.6667,4142.0513,4162.0513,4137.4359
4138.4615,4126.1538,4137.4359,4132.8205,4136.4103,4129.7436,4122.0513,4149.7436,4149.7436,4142.0513,4164.6154,4147.6923
4143.5897,4125.1282,4144.1026,4134.359,4134.359,4126.1538,4123.5897,4143.5897,4153.3333,4151.7949,4165.641,4157.4359
4148.2051,4124.6154,4151.2821,4137.9487,4140,4127.1795,4127.1795,4146.1538,4161.0256,4161.0256,4166.1538,4158.9744
4141.0256,4124.1026,4144.6154,4134.359,4140,4125.641,4124.1026,4147.1795,4156.4103,4154.359,4158.9744,4148.2051
4133.8462,4124.6154,4133.3333,4129.7436,4136.4103,4126.6667,4120.5128,4138.9744,4145.1282,4144.1026,4149.2308,4134.8718
4133.8462,4125.641,4132.8205,4131.2821,4140,4134.359,4124.6154,4135.8974,4146.6667,4143.5897,4147.6923,4133.3333
4130.2564,4124.6154,4134.8718,4132.3077,4139.4872,4138.9744,4128.7179,4143.0769,4150.2564,4144.6154,4148.2051,4140
4125.641,4124.6154,4129.7436,4128.7179,4130.7692,4132.3077,4126.1538,4144.6154,4140,4140,4140.5128,4136.4103
4130.2564,4126.1538,4129.2308,4128.7179,4130.7692,4126.1538,4122.5641,4138.9744,4138.9744,4140,4141.0256,4128.2051
4137.4359,4124.1026,4131.7949,4130.2564,4138.9744,4130.2564,4123.0769,4141.0256,4150.7692,4143.5897,4151.7949,4132.3077
4132.8205,4123.0769,4129.7436,4127.6923,4138.9744,4135.8974,4125.641,4145.641,4146.1538,4135.3846,4150.7692,4136.9231
4125.1282,4125.641,4125.641,4124.1026,4137.4359,4135.3846,4131.2821,4142.0513,4131.7949,4128.7179,4139.4872,4129.7436
4127.1795,4128.2051,4121.5385,4126.6667,4142.5641,4134.8718,4135.8974,4135.8974,4132.3077,4132.3077,4135.8974,4125.1282
4128.7179,4126.1538,4124.1026,4129.7436,4142.5641,4137.4359,4133.3333,4136.9231,4136.4103,4133.3333,4137.9487,4129.2308
4124.6154,4124.1026,4124.6154,4125.1282,4137.4359,4136.4103,4127.1795,4137.4359,4129.7436,4124.6154,4130.2564,4127.6923
4118.4615,4124.6154,4122.5641,4123.0769,4140,4137.4359,4128.2051,4131.7949,4120.5128,4120,4121.5385,4117.4359
4111.7949,4125.1282,4121.5385,4122.0513,4138.9744,4137.9487,4131.2821,4125.1282,4115.3846,4122.5641,4121.0256,4110.7692
4111.7949,4123.5897,4120,4114.359,4128.2051,4132.3077,4129.7436,4123.0769,4113.3333,4120.5128,4123.0769,4111.7949
4117.9487,4125.641,4121.0256,4112.8205,4120.5128,4127.1795,4127.1795,4123.0769,4115.3846,4120,4120.5128,4116.9231
4116.4103,4127.1795,4122.5641,4115.3846,4123.5897,4126.6667,4127.1795,4121.0256,4114.8718,4125.641,4113.3333,4118.4615
4111.7949,4124.1026,4118.9744,4114.359,4125.641,4130.7692,4133.3333,4127.1795,4113.8462,4124.1026,4110.2564,4114.359
4122.5641,4124.6154,4120.5128,4128.2051,4121.5385,4132.8205,4138.4615,4137.9487,4123.5897,4126.6667,4118.4615,4123.5897
4136.4103,4128.2051,4132.8205,4141.0256,4121.0256,4127.1795,4130.7692,4131.7949,4133.3333,4141.5385,4131.2821,4140
4136.4103,4124.1026,4138.9744,4136.4103,4125.1282,4122.5641,4121.5385,4124.6154,4136.9231,4149.7436,4137.4359,4140
4135.3846,4124.1026,4138.4615,4134.8718,4125.1282,4123.5897,4126.6667,4134.359,4143.5897,4150.7692,4144.6154,4138.9744
4150.2564,4136.4103,4147.1795,4136.4103,4122.0513,4124.6154,4135.3846,4142.0513,4150.2564,4152.8205,4158.4615,4153.3333
4173.3333,4142.5641,4157.4359,4134.8718,4123.0769,4126.1538,4139.4872,4139.4872,4161.0256,4156.9231,4180.5128,4172.8205
4183.5897,4132.8205,4157.4359,4140.5128,4123.5897,4128.7179,4140.5128,4141.0256,4171.7949,4163.5897,4198.9744,4179.4872
4179.4872,4129.2308,4153.3333,4144.1026,4121.5385,4125.641,4137.9487,4141.0256,4172.3077,4165.641,4201.5385,4175.3846
4180,4140,4148.7179,4139.4872,4118.9744,4123.5897,4134.8718,4134.8718,4170.2564,4160,4206.1538,4176.4103
4182.0513,4135.8974,4143.0769,4141.5385,4119.4872,4124.6154,4134.359,4134.359,4170.7692,4152.8205,4222.5641,4180.5128
4175.3846,4124.1026,4139.4872,4134.359,4122.0513,4124.6154,4136.4103,4142.0513,4170.7692,4152.8205,4230.2564,4176.4103
4167.6923,4128.7179,4137.9487,4120.5128,4117.4359,4123.0769,4135.3846,4146.6667,4171.2821,4152.3077,4233.8462,4168.7179
4169.7436,4140.5128,4135.8974,4126.6667,4112.8205,4122.0513,4128.7179,4140.5128,4167.1795,4148.7179,4241.5385,4169.7436
4171.2821,4137.9487,4135.3846,4138.4615,4116.9231,4124.6154,4127.1795,4135.3846,4157.9487,4149.2308,4237.9487,4172.3077
4168.2051,4132.3077,4135.8974,4140.5128,4122.0513,4131.2821,4134.359,4137.9487,4157.9487,4151.7949,4239.4872,4167.6923
4168.7179,4135.8974,4136.9231,4134.8718,4123.0769,4134.8718,4140,4137.4359,4161.0256,4149.7436,4255.3846,4164.1026
4164.1026,4137.9487,4136.4103,4126.6667,4125.1282,4136.4103,4141.0256,4135.3846,4154.8718,4147.1795,4257.9487,4164.6154
4154.8718,4131.2821,4132.3077,4122.5641,4126.1538,4137.4359,4136.9231,4136.9231,4149.7436,4146.6667,4251.7949,4159.4872
4154.359,4123.0769,4132.8205,4123.0769,4121.5385,4131.7949,4126.1538,4136.9231,4153.3333,4149.2308,4260.5128,4157.9487
4157.9487,4124.1026,4134.8718,4120.5128,4120,4126.1538,4122.0513,4134.359,4152.3077,4150.2564,4266.1538,4164.1026
4155.8974,4131.2821,4129.7436,4118.9744,4122.5641,4125.641,4128.2051,4135.8974,4149.2308,4147.1795,4254.8718,4162.5641
4152.8205,4131.7949,4130.2564,4122.5641,4123.0769,4125.641,4125.1282,4138.9744,4153.8462,4147.1795,4250.7692,4159.4872
4156.4103,4128.2051,4138.4615,4129.7436,4124.6154,4127.6923,4122.0513,4140,4157.9487,4152.3077,4260,4165.1282
4158.4615,4123.0769,4139.4872,4134.359,4126.6667,4131.7949,4131.7949,4138.9744,4154.359,4155.3846,4265.641,4163.5897
4152.8205,4120.5128,4133.8462,4130.7692,4124.6154,4129.2308,4136.4103,4136.4103,4150.7692,4149.7436,4260,4151.2821
4147.6923,4123.0769,4133.3333,4120.5128,4122.0513,4125.641,4135.3846,4136.9231,4150.2564,4147.1795,4257.9487,4151.7949
4148.7179,4124.6154,4127.6923,4115.8974,4123.5897,4129.7436,4136.4103,4140,4146.6667,4150.7692,4258.4615,4159.4872
4147.1795,4122.0513,4118.9744,4116.9231,4124.6154,4128.7179,4130.7692,4140,4139.4872,4145.1282,4249.7436,4151.7949
4148.2051,4123.5897,4124.1026,4120,4125.1282,4127.1795,4121.5385,4137.4359,4138.4615,4142.0513,4246.1538,4149.7436
4160.5128,4127.1795,4135.8974,4130.7692,4126.6667,4133.8462,4124.6154,4137.9487,4146.1538,4149.7436,4258.4615,4164.1026
4166.1538,4127.1795,4138.9744,4138.9744,4126.6667,4135.8974,4132.8205,4146.6667,4149.2308,4152.8205,4263.5897,4171.7949
4156.9231,4129.2308,4137.4359,4137.9487,4124.6154,4134.8718,4137.4359,4151.7949,4143.0769,4149.7436,4252.3077,4160
4147.1795,4130.2564,4132.8205,4130.7692,4125.1282,4139.4872,4138.9744,4145.1282,4136.9231,4145.1282,4243.5897,4149.7436
4151.7949,4124.1026,4127.1795,4127.1795,4125.641,4142.0513,4136.9231,4138.4615,4138.9744,4145.641,4244.1026,4154.8718
4155.3846,4118.4615,4130.2564,4133.3333,4124.6154,4137.4359,4135.3846,4137.9487,4141.0256,4147.6923,4239.4872,4157.4359
4147.1795,4126.6667,4136.9231,4136.9231,4123.5897,4135.8974,4136.9231,4138.9744,4130.2564,4146.6667,4229.2308,4150.7692
4148.2051,4138.9744,4138.9744,4134.359,4125.641,4138.9744,4137.9487,4140.5128,4127.1795,4149.7436,4231.7949,4153.3333
4151.2821,4131.7949,4135.3846,4133.8462,4130.2564,4137.9487,4136.4103,4139.4872,4133.8462,4150.7692,4235.8974,4157.4359
4141.5385,4117.9487,4128.2051,4140,4129.2308,4134.359,4134.359,4133.3333,4129.7436,4144.6154,4227.1795,4149.7436
4143.0769,4126.6667,4129.2308,4136.4103,4123.5897,4135.8974,4136.4103,4136.4103,4125.1282,4144.6154,4221.5385,4149.2308
4156.4103,4141.0256,4138.9744,4121.5385,4123.5897,4138.9744,4142.0513,4139.4872,4130.2564,4150.2564,4226.6667,4157.4359
4149.7436,4133.3333,4135.3846,4118.4615,4125.641,4132.3077,4139.4872,4128.7179,4126.6667,4145.1282,4216.9231,4152.3077
4134.359,4124.6154,4127.1795,4128.2051,4125.1282,4125.641,4132.8205,4124.6154,4116.4103,4135.3846,4195.8974,4140
4140.5128,4133.8462,4135.3846,4130.2564,4124.6154,4126.1538,4129.2308,4135.3846,4122.0513,4141.0256,4196.4103,4144.1026
4148.2051,4136.9231,4141.5385,4124.6154,4127.1795,4128.2051,4127.1795,4137.9487,4131.7949,4147.6923,4205.1282,4152.8205
4149.2308,4127.6923,4136.4103,4129.7436,4128.2051,4132.8205,4128.7179,4133.3333,4133.8462,4145.1282,4207.1795,4152.8205
4153.3333,4130.2564,4138.4615,4140,4128.2051,4138.9744,4135.8974,4135.8974,4139.4872,4147.1795,4215.3846,4154.8718
4153.8462,4133.3333,4142.5641,4138.9744,4127.1795,4136.9231,4138.4615,4139.4872,4141.0256,4149.7436,4218.4615,4155.8974
4149.2308,4128.7179,4141.0256,4134.8718,4125.641,4133.8462,4135.3846,4138.4615,4135.8974,4147.6923,4211.2821,4154.359
4153.8462,4132.3077,4142.5641,4137.4359,4124.6154,4133.3333,4136.9231,4138.9744,4136.9231,4150.7692,4217.9487,4157.9487
4154.359,4133.3333,4140.5128,4135.3846,4123.0769,4129.2308,4135.3846,4138.4615,4138.4615,4151.2821,4222.0513,4155.3846
4142.0513,4122.0513,4137.4359,4134.359,4122.5641,4123.5897,4127.1795,4135.8974,4133.3333,4148.7179,4205.1282,4148.2051
4141.5385,4121.0256,4140.5128,4136.9231,4123.5897,4122.5641,4124.6154,4135.8974,4132.3077,4149.2308,4204.1026,4150.2564
4150.2564,4130.7692,4142.5641,4130.2564,4123.5897,4130.2564,4132.3077,4138.4615,4132.3077,4149.2308,4217.4359,4152.8205
4143.0769,4125.641,4139.4872,4127.1795,4122.5641,4137.9487,4136.4103,4140,4126.1538,4146.6667,4211.7949,4147.1795
4131.7949,4118.4615,4138.4615,4134.8718,4125.641,4134.359,4129.7436,4138.9744,4123.0769,4145.1282,4197.9487,4140.5128
4139.4872,4128.7179,4140.5128,4132.3077,4129.2308,4131.2821,4124.1026,4136.4103,4126.1538,4147.1795,4203.5897,4142.5641
4143.0769,4136.4103,4137.4359,4119.4872,4127.1795,4136.9231,4126.6667,4135.3846,4126.6667,4145.641,4210.7692,4148.2051
4136.4103,4128.7179,4136.4103,4123.5897,4129.2308,4134.8718,4127.6923,4136.9231,4125.1282,4144.1026,4203.0769,4147.6923
4144.6154,4130.2564,4144.6154,4135.3846,4134.8718,4129.2308,4125.641,4139.4872,4124.6154,4148.2051,4201.5385,4150.2564
4151.2821,4138.4615,4146.1538,4135.3846,4132.8205,4132.3077,4130.2564,4140.5128,4123.5897,4149.7436,4207.6923,4151.7949
4142.5641,4130.7692,4141.0256,4135.3846,4126.1538,4137.4359,4135.3846,4139.4872,4125.641,4149.7436,4205.641,4146.6667
4136.9231,4120,4142.5641,4134.359,4124.1026,4137.9487,4134.8718,4141.5385,4125.641,4150.2564,4201.0256,4143.0769
4141.5385,4124.1026,4145.641,4129.2308,4128.2051,4133.8462,4128.7179,4138.4615,4121.0256,4148.7179,4199.4872,4145.641
4138.4615,4130.2564,4143.0769,4129.7436,4130.2564,4129.7436,4125.1282,4129.7436,4116.4103,4142.0513,4189.7436,4141.5385
4133.3333,4129.7436,4146.6667,4134.359,4129.2308,4133.3333,4129.2308,4128.7179,4117.4359,4142.5641,4181.5385,4134.8718
4140.5128,4130.7692,4156.4103,4134.8718,4131.2821,4138.4615,4137.4359,4138.9744,4123.5897,4155.3846,4190.2564,4144.1026
4143.5897,4130.7692,4155.8974,4135.3846,4133.8462,4137.4359,4135.8974,4144.6154,4124.6154,4156.9231,4196.9231,4152.3077
4141.0256,4129.7436,4146.6667,4138.9744,4134.359,4135.3846,4125.1282,4134.8718,4122.0513,4147.1795,4193.8462,4149.7436
4140.5128,4125.1282,4140,4136.4103,4131.2821,4135.3846,4121.0256,4124.1026,4122.0513,4144.1026,4189.2308,4142.0513
4137.4359,4125.1282,4140,4132.8205,4128.7179,4134.8718,4122.5641,4123.0769,4119.4872,4143.0769,4184.6154,4133.8462
4137.9487,4133.8462,4143.5897,4137.4359,4132.8205,4135.3846,4122.5641,4128.2051,4119.4872,4142.0513,4187.1795,4137.9487
4136.9231,4131.7949,4143.0769,4139.4872,4138.4615,4136.4103,4120.5128,4127.1795,4120,4141.5385,4185.641,4138.4615
4123.5897,4120.5128,4135.3846,4132.3077,4134.8718,4137.4359,4122.5641,4120.5128,4109.2308,4132.8205,4165.641,4125.1282
4120.5128,4124.1026,4133.8462,4128.7179,4127.1795,4139.4872,4131.7949,4126.1538,4102.0513,4128.7179,4157.9487,4122.5641
4135.8974,4135.3846,4140.5128,4135.3846,4124.6154,4138.9744,4136.4103,4137.9487,4112.3077,4137.4359,4176.4103,4136.4103
4142.0513,4133.3333,4143.5897,4137.9487,4123.0769,4137.4359,4132.8205,4142.0513,4122.5641,4143.5897,4187.6923,4141.5385
4138.4615,4129.2308,4145.641,4135.8974,4124.6154,4135.8974,4127.6923,4138.9744,4123.5897,4145.1282,4185.641,4138.4615
4142.0513,4136.9231,4149.7436,4138.4615,4125.1282,4134.359,4123.5897,4134.8718,4122.0513,4145.1282,4188.7179,4140.5128
4151.7949,4138.9744,4150.7692,4141.5385,4124.6154,4134.8718,4123.0769,4136.4103,4123.5897,4147.1795,4192.3077,4142.5641
4151.7949,4129.7436,4150.2564,4140,4128.2051,4135.8974,4130.2564,4133.8462,4123.0769,4149.7436,4184.1026,4144.1026
4142.5641,4127.1795,4151.2821,4138.4615,4127.6923,4135.8974,4129.7436,4126.6667,4115.3846,4150.2564,4171.7949,4141.5385
4142.5641,4132.8205,4151.2821,4138.4615,4123.5897,4135.8974,4125.641,4128.2051,4115.3846,4149.7436,4172.8205,4141.5385
4151.2821,4131.2821,4153.3333,4140,4130.7692,4138.4615,4130.2564,4136.9231,4123.0769,4150.7692,4179.4872,4145.641
4146.6667,4125.1282,4155.3846,4141.0256,4136.4103,4138.9744,4130.7692,4135.8974,4124.6154,4151.7949,4176.4103,4143.5897
4135.8974,4125.641,4149.2308,4140.5128,4128.7179,4136.9231,4127.1795,4133.3333,4120,4144.6154,4169.2308,4134.8718
4139.4872,4134.359,4143.5897,4140.5128,4124.1026,4136.4103,4133.8462,4140.5128,4123.5897,4141.0256,4171.7949,4136.9231
4144.6154,4135.8974,4143.0769,4140.5128,4127.6923,4138.9744,4142.0513,4144.6154,4126.1538,4145.641,4175.3846,4141.5385
4138.9744,4128.2051,4140.5128,4140.5128,4130.2564,4141.0256,4139.4872,4140,4120.5128,4144.6154,4171.2821,4134.8718
4137.4359,4126.1538,4142.5641,4141.5385,4131.2821,4141.0256,4136.9231,4136.9231,4123.0769,4141.5385,4171.2821,4134.359
4138.4615,4131.7949,4146.6667,4140.5128,4135.3846,4142.5641,4137.9487,4135.8974,4127.1795,4138.9744,4172.3077,4137.4359
4138.4615,4135.8974,4145.1282,4140.5128,4137.4359,4140,4136.4103,4135.3846,4123.5897,4140,4171.7949,4135.8974
4146.1538,4134.8718,4148.7179,4150.2564,4136.9231,4139.4872,4136.4103,4136.4103,4127.1795,4148.7179,4173.3333,4143.0769
4153.8462,4133.3333,4156.9231,4154.8718,4138.9744,4147.6923,4137.4359,4140,4131.7949,4155.8974,4173.3333,4149.2308
4147.1795,4127.6923,4152.8205,4144.6154,4138.4615,4148.7179,4138.4615,4141.0256,4127.1795,4150.7692,4171.2821,4143.5897
4137.4359,4123.0769,4139.4872,4134.8718,4132.3077,4143.0769,4137.9487,4139.4872,4121.0256,4138.9744,4159.4872,4135.8974
4136.9231,4125.1282,4135.3846,4134.8718,4129.2308,4144.1026,4141.5385,4140,4122.0513,4137.9487,4145.641,4130.2564
4139.4872,4126.6667,4139.4872,4137.4359,4133.8462,4145.1282,4146.1538,4141.5385,4124.6154,4142.5641,4148.7179,4129.2308
4137.4359,4125.641,4137.9487,4137.4359,4134.359,4138.4615,4141.0256,4137.9487,4122.5641,4136.4103,4151.7949,4130.7692
4130.2564,4127.1795,4129.2308,4130.7692,4129.7436,4134.8718,4134.8718,4133.3333,4121.5385,4125.1282,4137.9487,4126.1538
4129.7436,4133.3333,4127.6923,4125.641,4128.2051,4137.4359,4135.3846,4135.3846,4122.5641,4125.641,4132.3077,4118.9744
4131.7949,4137.4359,4136.4103,4130.7692,4128.2051,4137.4359,4136.4103,4138.4615,4122.5641,4132.8205,4136.9231,4117.9487
4129.2308,4134.8718,4138.4615,4136.9231,4125.641,4136.9231,4135.8974,4136.9231,4125.641,4132.8205,4128.7179,4120.5128
4132.3077,4136.4103,4134.8718,4136.4103,4126.6667,4137.4359,4137.9487,4137.4359,4133.8462,4132.3077,4126.1538,4122.0513
4139.4872,4135.8974,4140,4136.9231,4134.359,4137.9487,4140,4139.4872,4139.4872,4140.5128,4137.9487,4125.641
4138.9744,4127.6923,4143.5897,4138.4615,4133.8462,4135.8974,4136.9231,4136.9231,4137.4359,4146.1538,4138.9744,4128.2051
4136.9231,4127.1795,4138.4615,4137.4359,4124.1026,4134.8718,4131.2821,4133.3333,4136.4103,4142.5641,4133.8462,4127.6923
4141.0256,4132.3077,4137.9487,4136.9231,4121.5385,4135.8974,4131.2821,4133.8462,4138.9744,4142.5641,4139.4872,4128.7179
4137.9487,4130.7692,4134.359,4137.9487,4127.1795,4130.7692,4135.8974,4134.8718,4138.9744,4142.5641,4140,4127.6923
4136.4103,4132.8205,4124.1026,4138.4615,4124.6154,4126.6667,4133.3333,4135.8974,4137.9487,4142.0513,4135.8974,4126.6667
4144.6154,4137.9487,4124.1026,4137.9487,4121.0256,4132.3077,4125.641,4137.9487,4138.9744,4145.1282,4145.1282,4130.7692
4149.7436,4135.8974,4130.2564,4141.5385,4129.2308,4136.9231,4127.6923,4139.4872,4143.5897,4146.6667,4155.3846,4135.8974
4150.7692,4135.8974,4132.8205,4150.2564,4137.9487,4135.8974,4136.4103,4139.4872,4151.7949,4150.2564,4156.4103,4139.4872
4153.8462,4133.3333,4133.8462,4154.359,4137.4359,4137.4359,4138.4615,4138.9744,4156.4103,4148.7179,4157.4359,4139.4872
4150.2564,4128.7179,4137.4359,4149.2308,4130.7692,4141.5385,4137.4359,4140,4150.7692,4143.0769,4158.9744,4136.4103
4141.5385,4130.7692,4136.9231,4141.5385,4128.2051,4140.5128,4138.9744,4140,4140,4143.5897,4152.3077,4133.3333
4141.0256,4133.3333,4136.9231,4140.5128,4132.3077,4138.4615,4139.4872,4139.4872,4137.9487,4147.1795,4149.2308,4135.3846
4150.2564,4131.7949,4140,4149.7436,4136.9231,4138.4615,4137.4359,4142.5641,4145.641,4149.7436,4155.8974,4142.0513
4152.8205,4129.7436,4138.4615,4151.7949,4138.4615,4140,4135.8974,4143.5897,4151.7949,4150.2564,4157.4359,4140
4146.6667,4127.6923,4135.3846,4140.5128,4136.4103,4138.9744,4137.4359,4143.5897,4153.8462,4149.7436,4155.3846,4134.8718
4142.5641,4125.1282,4135.3846,4140,4131.7949,4133.8462,4137.9487,4148.2051,4157.9487,4150.7692,4158.4615,4136.4103
4136.4103,4123.0769,4131.2821,4138.9744,4127.6923,4130.2564,4136.4103,4148.2051,4154.359,4149.2308,4154.8718,4130.7692
4130.2564,4126.1538,4123.5897,4126.1538,4129.2308,4133.3333,4136.9231,4140.5128,4146.1538,4145.1282,4147.1795,4123.0769
4132.3077,4130.7692,4126.6667,4126.1538,4134.359,4137.9487,4138.4615,4135.3846,4144.6154,4141.5385,4148.7179,4126.6667
4136.4103,4128.7179,4132.8205,4136.4103,4137.9487,4137.4359,4133.3333,4135.3846,4144.1026,4142.5641,4148.2051,4129.2308
4134.8718,4122.5641,4133.8462,4130.7692,4136.4103,4134.359,4124.6154,4137.9487,4140.5128,4145.641,4138.9744,4125.641
4130.7692,4123.5897,4129.2308,4122.0513,4130.7692,4134.359,4121.5385,4133.8462,4137.9487,4144.1026,4135.8974,4124.6154
4126.6667,4129.7436,4124.1026,4125.641,4125.1282,4135.8974,4124.1026,4124.6154,4140.5128,4141.0256,4140,4125.641
4130.2564,4131.7949,4128.2051,4131.7949,4128.7179,4135.8974,4125.641,4121.5385,4141.0256,4142.0513,4140.5128,4128.2051
4139.4872,4132.8205,4135.3846,4135.3846,4135.8974,4135.8974,4124.6154,4128.2051,4139.4872,4148.2051,4141.5385,4132.8205
4141.5385,4134.8718,4135.3846,4138.4615,4132.3077,4136.4103,4127.6923,4134.8718,4140.5128,4151.7949,4142.5641,4131.2821
4141.5385,4135.8974,4135.3846,4137.9487,4130.2564,4137.4359,4133.8462,4136.9231,4137.9487,4149.7436,4138.4615,4131.7949
4147.1795,4135.3846,4141.5385,4137.4359,4134.8718,4137.9487,4137.4359,4146.1538,4139.4872,4155.3846,4142.0513,4141.0256
4150.2564,4131.2821,4140,4138.4615,4131.7949,4138.4615,4138.4615,4154.359,4145.641,4161.0256,4148.2051,4141.5385
4148.7179,4127.1795,4136.4103,4140,4130.2564,4137.9487,4138.4615,4145.1282,4143.5897,4153.8462,4143.0769,4136.9231
4143.0769,4129.7436,4140.5128,4137.4359,4134.359,4137.9487,4136.9231,4134.359,4136.9231,4146.6667,4135.8974,4136.9231
4135.3846,4133.8462,4136.4103,4135.3846,4131.7949,4137.4359,4135.8974,4136.9231,4136.9231,4146.1538,4136.4103,4132.8205
4137.9487,4134.359,4133.3333,4138.9744,4131.2821,4137.9487,4139.4872,4139.4872,4140.5128,4148.7179,4141.0256,4133.3333
4144.1026,4132.8205,4135.8974,4140,4135.3846,4137.4359,4138.9744,4135.8974,4141.5385,4149.7436,4143.0769,4138.4615
4139.4872,4132.3077,4131.7949,4136.9231,4129.7436,4136.4103,4133.8462,4135.8974,4138.4615,4145.641,4140.5128,4133.8462
4134.359,4127.6923,4128.7179,4139.4872,4123.5897,4136.4103,4135.3846,4138.4615,4133.8462,4142.0513,4137.4359,4130.2564
4136.4103,4125.641,4134.359,4140,4125.641,4137.4359,4134.359,4138.9744,4133.8462,4144.1026,4138.4615,4134.359
4139.4872,4129.7436,4137.4359,4131.7949,4123.5897,4136.4103,4128.7179,4137.9487,4134.359,4147.1795,4141.5385,4134.8718
4137.4359,4133.3333,4134.359,4129.7436,4122.5641,4136.9231,4133.3333,4137.9487,4130.2564,4146.6667,4140,4131.7949
4134.8718,4137.4359,4135.8974,4138.9744,4130.7692,4141.5385,4141.0256,4142.0513,4128.2051,4146.1538,4140,4129.7436
4135.3846,4141.0256,4138.4615,4141.0256,4133.3333,4142.5641,4138.4615,4143.0769,4131.7949,4148.2051,4141.0256,4130.2564
4136.4103,4136.4103,4137.4359,4135.8974,4127.1795,4137.9487,4135.3846,4141.0256,4133.3333,4150.7692,4141.0256,4133.8462
4134.8718,4132.3077,4136.4103,4137.9487,4125.641,4134.8718,4134.8718,4134.8718,4128.2051,4150.7692,4140.5128,4134.359
4127.6923,4129.7436,4131.2821,4136.4103,4127.6923,4135.3846,4130.2564,4124.6154,4123.0769,4143.5897,4131.7949,4126.1538
4120,4128.2051,4123.0769,4130.7692,4124.6154,4135.8974,4126.1538,4120,4120.5128,4134.8718,4122.0513,4117.9487
4122.0513,4130.2564,4122.0513,4133.8462,4121.0256,4135.3846,4122.0513,4121.5385,4124.1026,4138.9744,4127.1795,4120.5128
4129.2308,4129.2308,4129.7436,4140,4124.1026,4136.4103,4125.1282,4126.6667,4125.641,4144.1026,4138.9744,4129.2308
4135.3846,4128.7179,4137.9487,4140,4125.641,4136.4103,4133.3333,4134.359,4125.1282,4144.1026,4143.0769,4135.8974
4143.5897,4134.359,4139.4872,4140,4126.1538,4137.4359,4133.3333,4137.4359,4129.7436,4148.2051,4151.2821,4137.4359
4149.2308,4135.3846,4139.4872,4141.5385,4126.6667,4137.9487,4127.1795,4135.8974,4133.8462,4153.8462,4164.6154,4138.4615
4145.1282,4128.7179,4138.9744,4138.4615,4123.0769,4131.7949,4125.641,4136.9231,4130.7692,4151.7949,4162.0513,4140
4136.4103,4127.6923,4136.4103,4136.4103,4121.5385,4126.1538,4129.7436,4136.9231,4124.1026,4147.1795,4152.3077,4136.4103
4137.9487,4132.3077,4138.4615,4138.9744,4124.1026,4127.6923,4130.7692,4135.3846,4123.0769,4147.6923,4153.3333,4131.7949
4141.5385,4126.1538,4141.5385,4140.5128,4125.1282,4130.2564,4128.2051,4137.9487,4125.641,4151.7949,4158.4615,4135.8974
4138.4615,4122.0513,4138.9744,4137.9487,4122.5641,4126.1538,4128.2051,4138.9744,4126.1538,4149.7436,4154.359,4134.8718
4137.4359,4130.7692,4138.9744,4134.8718,4122.0513,4124.1026,4134.8718,4140,4126.6667,4147.6923,4151.7949,4132.8205
4136.4103,4138.4615,4142.0513,4131.2821,4124.1026,4126.1538,4137.9487,4141.0256,4125.641,4147.1795,4152.3077,4132.3077
4131.2821,4132.8205,4142.0513,4127.1795,4124.6154,4126.1538,4133.8462,4139.4872,4123.0769,4145.641,4142.5641,4127.6923
4125.641,4123.0769,4133.8462,4124.1026,4122.5641,4123.0769,4133.8462,4135.3846,4121.5385,4141.0256,4133.8462,4119.4872
4121.0256,4125.1282,4124.6154,4121.0256,4121.0256,4122.5641,4137.4359,4130.7692,4120,4134.8718,4132.3077,4114.8718
4122.0513,4131.7949,4126.1538,4122.5641,4122.0513,4126.1538,4140,4133.3333,4124.1026,4138.4615,4137.4359,4120.5128
4130.2564,4134.8718,4134.359,4131.7949,4122.0513,4129.7436,4137.9487,4138.9744,4127.6923,4145.641,4146.1538,4125.641
4135.8974,4135.8974,4136.4103,4137.9487,4121.5385,4126.6667,4133.3333,4136.4103,4123.0769,4146.6667,4146.1538,4123.0769
4136.4103,4137.9487,4136.4103,4136.9231,4122.5641,4124.1026,4134.8718,4132.8205,4128.2051,4150.2564,4147.6923,4127.1795
4136.9231,4136.4103,4138.4615,4134.8718,4123.0769,4124.6154,4134.359,4131.2821,4134.8718,4151.7949,4151.7949,4131.7949
4136.4103,4132.8205,4136.9231,4134.359,4122.0513,4124.1026,4126.1538,4128.7179,4126.1538,4145.641,4146.6667,4125.641
4137.4359,4134.8718,4136.9231,4137.9487,4122.0513,4128.2051,4126.6667,4133.3333,4125.1282,4144.1026,4143.0769,4127.6923
4139.4872,4132.8205,4140,4140,4121.5385,4132.3077,4135.8974,4140,4135.3846,4147.1795,4152.3077,4134.8718
4137.9487,4126.1538,4136.9231,4135.8974,4120,4130.7692,4137.9487,4137.9487,4130.2564,4146.6667,4155.8974,4131.2821
4136.9231,4130.2564,4134.359,4135.8974,4123.0769,4128.7179,4137.9487,4136.9231,4122.5641,4143.0769,4151.7949,4128.2051
4138.9744,4137.9487,4136.4103,4138.4615,4124.6154,4128.7179,4136.4103,4133.8462,4127.6923,4143.0769,4149.7436,4128.2051
4139.4872,4132.8205,4136.4103,4130.7692,4118.4615,4127.6923,4127.1795,4122.0513,4126.1538,4145.641,4143.5897,4126.1538
4135.8974,4128.2051,4134.8718,4124.1026,4116.4103,4124.6154,4127.1795,4122.5641,4122.0513,4145.641,4146.1538,4127.6923
4135.3846,4134.8718,4136.4103,4128.2051,4120.5128,4126.6667,4136.4103,4128.7179,4131.2821,4145.641,4153.8462,4129.7436
4143.5897,4135.8974,4140,4137.4359,4125.641,4132.8205,4136.9231,4128.2051,4139.4872,4146.6667,4152.8205,4130.2564
4145.641,4129.2308,4141.0256,4137.4359,4127.6923,4137.9487,4134.8718,4132.8205,4137.9487,4147.1795,4152.8205,4132.8205
4136.9231,4129.2308,4138.9744,4128.7179,4125.1282,4136.9231,4137.9487,4137.9487,4136.9231,4145.1282,4153.3333,4133.8462
4135.8974,4138.9744,4139.4872,4129.2308,4123.0769,4134.8718,4138.4615,4136.4103,4135.3846,4145.1282,4146.6667,4129.2308
4143.0769,4136.4103,4141.0256,4136.9231,4123.0769,4135.8974,4137.9487,4138.4615,4130.2564,4148.7179,4143.5897,4130.7692
4140,4126.1538,4138.4615,4136.9231,4123.0769,4136.4103,4138.4615,4141.0256,4129.7436,4146.1538,4149.2308,4133.3333
4135.3846,4130.7692,4137.9487,4133.8462,4122.0513,4137.4359,4139.4872,4137.4359,4132.8205,4144.6154,4149.7436,4133.8462
4140,4138.4615,4141.0256,4137.4359,4122.0513,4136.4103,4141.0256,4134.8718,4127.6923,4144.6154,4142.5641,4131.2821
4133.8462,4130.2564,4132.8205,4134.359,4120.5128,4130.7692,4138.4615,4134.359,4117.9487,4136.9231,4135.3846,4119.4872
4126.6667,4126.1538,4126.1538,4125.641,4122.0513,4132.3077,4140.5128,4134.8718,4119.4872,4136.4103,4136.9231,4118.9744
4134.359,4135.3846,4132.8205,4127.6923,4125.641,4140,4149.2308,4138.4615,4130.7692,4143.0769,4140.5128,4126.6667
4138.9744,4136.4103,4134.8718,4134.8718,4124.6154,4136.9231,4147.1795,4139.4872,4133.3333,4143.5897,4133.8462,4126.1538
4134.359,4131.2821,4130.2564,4134.8718,4122.0513,4130.7692,4137.4359,4135.8974,4126.6667,4138.9744,4127.1795,4124.6154
4134.8718,4135.3846,4133.8462,4134.8718,4123.5897,4132.3077,4137.9487,4137.4359,4124.6154,4141.5385,4130.2564,4128.2051
4136.4103,4137.9487,4138.9744,4141.0256,4125.641,4132.3077,4140,4139.4872,4129.2308,4145.641,4131.2821,4128.7179
4133.3333,4133.8462,4137.4359,4140,4124.6154,4123.5897,4128.7179,4131.7949,4124.6154,4139.4872,4123.5897,4126.6667
4133.8462,4133.8462,4137.4359,4134.359,4123.0769,4121.0256,4122.0513,4127.6923,4119.4872,4135.3846,4122.5641,4128.2051
4136.4103,4138.9744,4137.9487,4136.4103,4124.6154,4127.6923,4132.8205,4137.9487,4130.2564,4142.5641,4132.8205,4130.2564
4135.8974,4134.359,4137.4359,4139.4872,4124.6154,4127.6923,4134.359,4142.5641,4138.9744,4146.1538,4136.9231,4129.2308
4137.4359,4127.6923,4141.5385,4137.9487,4122.0513,4122.0513,4122.5641,4130.2564,4137.9487,4143.0769,4133.3333,4131.2821
4138.4615,4132.3077,4143.0769,4138.4615,4123.0769,4127.1795,4124.6154,4121.5385,4136.9231,4142.5641,4127.1795,4134.359
4135.3846,4139.4872,4138.4615,4139.4872,4126.6667,4135.8974,4137.9487,4121.5385,4136.4103,4142.5641,4121.5385,4131.2821
4136.4103,4137.9487,4140,4137.9487,4126.6667,4136.4103,4139.4872,4126.1538,4135.8974,4146.1538,4124.1026,4132.3077
4145.1282,4135.3846,4150.2564,4141.5385,4130.2564,4135.8974,4136.4103,4134.8718,4138.9744,4152.3077,4134.359,4140
4152.8205,4136.9231,4156.9231,4152.3077,4134.8718,4139.4872,4138.9744,4140,4147.6923,4160.5128,4141.5385,4147.1795
4154.8718,4136.4103,4153.8462,4155.3846,4131.7949,4138.4615,4140.5128,4140,4153.3333,4163.0769,4138.4615,4149.2308
4149.7436,4132.8205,4146.1538,4145.641,4126.1538,4135.3846,4138.9744,4137.9487,4147.1795,4154.359,4135.8974,4144.6154
4141.5385,4126.6667,4140.5128,4137.9487,4124.6154,4137.9487,4137.9487,4136.4103,4140,4150.7692,4137.4359,4136.4103
4136.9231,4122.5641,4138.4615,4139.4872,4121.5385,4135.3846,4136.4103,4129.7436,4140,4151.2821,4130.7692,4133.8462
4137.4359,4128.2051,4136.4103,4139.4872,4120,4126.1538,4134.8718,4121.5385,4132.3077,4146.6667,4121.5385,4135.8974
4138.9744,4131.7949,4136.9231,4140,4122.0513,4130.2564,4136.9231,4126.6667,4124.6154,4144.1026,4125.641,4133.8462
4138.4615,4127.1795,4135.8974,4146.1538,4123.0769,4138.9744,4138.4615,4137.9487,4132.3077,4144.6154,4137.9487,4135.3846
4140,4122.5641,4133.3333,4154.359,4122.5641,4131.2821,4136.4103,4141.0256,4142.0513,4146.1538,4142.0513,4142.0513
4141.0256,4125.641,4132.3077,4151.7949,4125.1282,4126.6667,4136.9231,4137.9487,4134.8718,4145.641,4138.9744,4136.9231
4136.9231,4126.6667,4130.7692,4143.0769,4127.6923,4136.4103,4138.9744,4133.3333,4124.1026,4144.6154,4136.9231,4129.2308
4132.3077,4123.0769,4123.5897,4138.4615,4124.1026,4138.9744,4136.9231,4129.2308,4125.641,4143.5897,4136.9231,4130.2564
4132.8205,4124.1026,4120.5128,4136.4103,4122.0513,4134.8718,4136.4103,4131.7949,4129.7436,4142.0513,4136.9231,4130.7692
4138.9744,4127.6923,4131.7949,4137.4359,4126.6667,4136.9231,4140,4138.4615,4132.3077,4145.641,4137.9487,4133.3333
4140,4125.641,4140,4142.0513,4126.1538,4131.7949,4138.4615,4136.9231,4135.8974,4147.1795,4139.4872,4139.4872
4136.4103,4124.1026,4132.8205,4142.5641,4122.0513,4123.5897,4135.3846,4133.3333,4140.5128,4143.0769,4136.9231,4140
4138.4615,4126.1538,4130.2564,4142.0513,4126.6667,4129.2308,4138.4615,4136.9231,4140,4145.1282,4137.9487,4138.4615
4137.9487,4125.641,4137.4359,4143.5897,4130.7692,4134.8718,4141.5385,4140.5128,4137.4359,4148.7179,4141.0256,4136.9231
4131.7949,4122.0513,4137.9487,4141.5385,4124.6154,4125.641,4134.8718,4133.8462,4136.9231,4144.6154,4135.8974,4135.3846
4128.2051,4122.0513,4134.359,4137.9487,4120,4118.9744,4124.6154,4123.0769,4133.3333,4138.9744,4129.2308,4130.7692
4131.7949,4125.641,4137.4359,4139.4872,4121.0256,4124.1026,4126.1538,4123.0769,4132.8205,4142.0513,4129.2308,4129.2308
4138.9744,4128.2051,4140.5128,4142.5641,4123.5897,4126.1538,4135.8974,4128.7179,4136.4103,4149.2308,4135.3846,4133.8462
4139.4872,4124.6154,4141.0256,4142.5641,4126.6667,4127.6923,4138.4615,4130.7692,4138.9744,4151.2821,4137.9487,4139.4872
4133.3333,4122.5641,4142.0513,4140.5128,4126.1538,4135.3846,4136.4103,4128.2051,4139.4872,4147.1795,4130.7692,4135.3846
4130.7692,4126.1538,4140.5128,4138.4615,4128.2051,4136.9231,4136.9231,4125.1282,4137.9487,4144.6154,4126.1538,4130.7692
4135.8974,4127.1795,4141.0256,4138.4615,4135.8974,4134.8718,4138.9744,4130.2564,4138.4615,4152.8205,4134.359,4137.9487
4140.5128,4124.6154,4144.1026,4141.5385,4134.8718,4136.9231,4140.5128,4138.9744,4141.0256,4156.9231,4142.5641,4145.1282
4136.9231,4122.5641,4141.5385,4141.5385,4128.2051,4136.9231,4139.4872,4137.9487,4138.4615,4150.2564,4136.9231,4138.4615
4137.9487,4127.1795,4141.5385,4142.5641,4131.7949,4136.4103,4137.4359,4136.9231,4137.9487,4152.3077,4134.359,4139.4872
4145.641,4130.2564,4150.7692,4149.7436,4137.4359,4134.8718,4137.9487,4140.5128,4143.5897,4161.0256,4142.5641,4150.7692
4146.1538,4127.6923,4155.8974,4151.2821,4135.8974,4130.2564,4137.9487,4142.0513,4139.4872,4162.5641,4143.0769,4151.2821
4138.9744,4124.6154,4149.7436,4143.0769,4132.8205,4128.7179,4135.8974,4138.9744,4128.2051,4155.8974,4131.7949,4138.9744
4135.3846,4123.5897,4143.0769,4136.9231,4132.8205,4134.359,4135.8974,4134.8718,4129.7436,4150.7692,4127.1795,4134.359
4137.9487,4124.6154,4145.1282,4141.0256,4137.4359,4132.8205,4137.4359,4136.9231,4140,4154.8718,4136.4103,4139.4872
4140,4125.1282,4145.1282,4143.0769,4138.9744,4125.1282,4132.3077,4138.9744,4140.5128,4153.8462,4140,4141.5385
4137.4359,4126.1538,4142.0513,4140,4135.8974,4128.7179,4128.7179,4132.3077,4134.8718,4147.1795,4131.2821,4135.3846
4136.4103,4124.6154,4142.0513,4139.4872,4133.3333,4136.9231,4134.8718,4129.7436,4131.2821,4150.2564,4124.6154,4131.7949
4132.8205,4120.5128,4142.5641,4140.5128,4132.3077,4131.7949,4134.8718,4135.3846,4125.641,4150.7692,4122.0513,4131.7949
4125.1282,4124.1026,4140,4138.4615,4133.8462,4123.5897,4130.2564,4135.8974,4122.0513,4143.5897,4120.5128,4128.7179
4127.1795,4133.8462,4138.4615,4135.8974,4135.8974,4126.6667,4133.3333,4135.8974,4123.0769,4143.5897,4121.5385,4127.6923
4134.359,4133.3333,4138.9744,4137.4359,4135.3846,4130.2564,4136.4103,4135.8974,4123.5897,4146.1538,4124.1026,4129.7436
4129.2308,4126.1538,4136.4103,4136.9231,4133.8462,4131.2821,4133.8462,4130.7692,4122.5641,4140.5128,4117.4359,4128.2051
4124.6154,4124.6154,4135.3846,4134.8718,4133.3333,4136.9231,4136.9231,4130.7692,4119.4872,4135.8974,4109.7436,4125.1282
4130.2564,4128.7179,4138.9744,4135.3846,4128.7179,4138.4615,4138.4615,4137.4359,4123.0769,4138.4615,4115.3846,4125.641
4134.8718,4133.8462,4140,4134.359,4125.641,4135.3846,4136.9231,4138.9744,4133.8462,4144.6154,4126.6667,4130.7692
4138.9744,4135.8974,4141.0256,4135.3846,4131.2821,4138.4615,4140.5128,4140,4140.5128,4152.3077,4134.8718,4137.9487
4144.1026,4132.8205,4143.0769,4138.9744,4132.3077,4134.8718,4136.4103,4140.5128,4140,4154.359,4140.5128,4142.0513
4137.9487,4127.6923,4138.4615,4138.9744,4127.1795,4124.6154,4128.2051,4138.4615,4137.9487,4146.6667,4140.5128,4136.4103
4134.8718,4126.1538,4136.4103,4136.9231,4131.2821,4126.6667,4131.2821,4138.9744,4137.9487,4143.5897,4137.9487,4135.8974
4143.0769,4128.7179,4146.1538,4138.9744,4137.4359,4137.9487,4138.4615,4141.0256,4140.5128,4148.2051,4142.0513,4140.5128
4141.5385,4134.8718,4147.6923,4138.9744,4136.4103,4138.9744,4138.4615,4140,4138.4615,4149.2308,4140,4137.4359
4139.4872,4135.8974,4144.1026,4138.4615,4133.8462,4135.3846,4136.4103,4137.9487,4132.3077,4148.7179,4134.359,4140
4145.641,4135.8974,4150.7692,4140,4134.8718,4135.8974,4137.4359,4138.9744,4133.3333,4149.2308,4135.3846,4146.1538
4143.0769,4135.8974,4150.7692,4138.9744,4134.359,4133.8462,4136.4103,4140,4137.9487,4152.3077,4137.4359,4142.0513
4141.5385,4129.7436,4146.1538,4138.9744,4131.2821,4134.359,4136.9231,4138.9744,4142.0513,4157.9487,4140,4141.0256
4146.6667,4124.6154,4147.1795,4140.5128,4129.2308,4133.3333,4135.8974,4137.9487,4136.9231,4153.8462,4141.5385,4142.0513
4135.8974,4123.5897,4143.0769,4137.9487,4130.7692,4125.1282,4127.1795,4130.7692,4120,4141.5385,4127.1795,4128.7179
4125.641,4127.1795,4135.8974,4136.4103,4136.4103,4122.0513,4122.5641,4123.5897,4112.3077,4138.4615,4113.8462,4122.5641
4138.9744,4133.8462,4140.5128,4140,4137.9487,4129.7436,4130.7692,4127.1795,4124.6154,4145.641,4129.2308,4138.9744
4145.1282,4132.3077,4141.5385,4139.4872,4133.8462,4136.4103,4134.8718,4129.2308,4134.359,4146.6667,4141.5385,4145.641
4136.4103,4125.641,4135.3846,4135.3846,4131.2821,4135.3846,4128.7179,4126.1538,4133.8462,4145.1282,4133.8462,4137.4359
4143.5897,4129.2308,4143.0769,4139.4872,4130.2564,4132.8205,4127.1795,4130.7692,4140.5128,4150.2564,4136.9231,4142.5641
4142.0513,4129.2308,4140.5128,4135.3846,4126.1538,4125.1282,4125.1282,4129.7436,4137.9487,4144.6154,4138.9744,4143.0769
4124.1026,4122.5641,4122.5641,4125.1282,4121.5385,4117.9487,4118.9744,4117.9487,4122.0513,4131.2821,4124.6154,4128.7179
4127.6923,4125.641,4126.6667,4131.7949,4123.5897,4119.4872,4121.5385,4117.9487,4127.1795,4137.9487,4119.4872,4129.2308
4141.0256,4129.2308,4140,4138.9744,4127.1795,4126.6667,4127.6923,4125.641,4136.4103,4146.6667,4126.1538,4139.4872
4135.3846,4124.1026,4130.7692,4127.1795,4124.1026,4126.6667,4126.6667,4124.6154,4127.1795,4142.5641,4122.5641,4135.8974
4124.1026,4121.5385,4121.0256,4119.4872,4120,4123.0769,4129.7436,4127.1795,4126.6667,4142.0513,4112.8205,4127.6923
4123.0769,4124.1026,4127.1795,4125.641,4123.5897,4128.7179,4138.9744,4138.9744,4134.359,4143.0769,4105.641,4124.6154
4129.2308,4126.6667,4129.2308,4130.2564,4128.7179,4137.4359,4143.5897,4143.5897,4128.7179,4141.5385,4110.7692,4129.2308
4130.7692,4125.641,4124.6154,4129.2308,4127.6923,4135.8974,4141.0256,4138.9744,4127.1795,4141.0256,4119.4872,4131.2821
4125.641,4123.5897,4121.5385,4127.1795,4129.2308,4129.7436,4137.4359,4136.4103,4135.3846,4141.5385,4114.359,4126.6667
4130.2564,4123.5897,4128.2051,4132.8205,4134.359,4132.8205,4137.4359,4135.3846,4137.9487,4145.641,4110.7692,4130.2564
4135.8974,4125.1282,4132.8205,4136.9231,4130.7692,4135.8974,4139.4872,4134.359,4136.4103,4147.6923,4118.4615,4133.8462
4125.641,4122.5641,4125.1282,4126.1538,4122.0513,4129.2308,4138.4615,4136.4103,4137.4359,4143.5897,4121.5385,4124.6154
4125.1282,4120,4125.641,4120.5128,4123.0769,4124.1026,4136.9231,4135.8974,4144.6154,4143.5897,4122.0513,4124.1026
4136.4103,4121.5385,4133.8462,4126.1538,4124.1026,4126.1538,4138.4615,4137.9487,4150.2564,4149.7436,4125.1282,4134.8718
4137.9487,4123.0769,4132.8205,4126.1538,4121.5385,4128.7179,4139.4872,4150.2564,4148.2051,4149.7436,4124.6154,4134.359
4134.359,4122.5641,4132.8205,4124.6154,4122.0513,4126.1538,4133.8462,4151.2821,4145.1282,4150.2564,4124.1026,4133.3333
4131.2821,4123.0769,4138.9744,4125.1282,4122.5641,4124.6154,4130.2564,4137.9487,4147.1795,4152.8205,4122.0513,4137.9487
4127.1795,4122.0513,4135.3846,4122.5641,4122.0513,4124.1026,4132.8205,4133.3333,4143.5897,4148.2051,4108.7179,4132.3077
4131.7949,4122.5641,4134.359,4123.5897,4124.1026,4123.5897,4135.8974,4137.9487,4138.4615,4149.2308,4102.0513,4129.7436
4140,4127.1795,4147.1795,4127.1795,4127.1795,4123.5897,4134.359,4138.4615,4146.6667,4156.4103,4115.8974,4138.9744
4137.4359,4129.2308,4149.7436,4124.6154,4125.641,4125.1282,4136.9231,4135.8974,4152.3077,4153.3333,4123.5897,4138.4615
4132.8205,4128.2051,4140.5128,4122.5641,4121.5385,4125.641,4137.4359,4131.2821,4144.6154,4150.2564,4113.3333,4134.8718
4128.2051,4126.1538,4134.8718,4123.5897,4120.5128,4122.5641,4132.3077,4125.641,4137.4359,4150.2564,4107.1795,4135.3846
4124.1026,4129.2308,4136.9231,4124.6154,4124.1026,4124.1026,4133.3333,4130.7692,4141.0256,4150.7692,4110.2564,4131.2821
4128.7179,4134.359,4140,4127.1795,4126.6667,4127.6923,4138.9744,4135.8974,4142.0513,4151.7949,4112.8205,4130.2564
4127.1795,4130.7692,4135.3846,4125.641,4124.1026,4124.6154,4136.9231,4134.359,4134.359,4148.2051,4110.7692,4127.6923
4120.5128,4127.1795,4130.7692,4122.5641,4123.0769,4120.5128,4135.3846,4134.8718,4132.8205,4142.0513,4107.6923,4121.0256
4121.5385,4127.1795,4130.2564,4123.0769,4124.6154,4123.5897,4132.3077,4130.7692,4131.2821,4140.5128,4108.2051,4121.0256
4121.5385,4130.2564,4129.2308,4120.5128,4125.1282,4124.6154,4124.6154,4121.0256,4124.1026,4142.0513,4106.6667,4123.0769
4116.9231,4131.2821,4129.7436,4119.4872,4122.5641,4121.5385,4125.641,4120,4119.4872,4138.4615,4103.5897,4119.4872
4120.5128,4131.2821,4134.359,4130.2564,4124.1026,4128.7179,4135.3846,4132.3077,4128.7179,4135.3846,4111.7949,4119.4872
4129.7436,4133.3333,4138.9744,4138.9744,4127.1795,4136.4103,4137.9487,4141.0256,4141.0256,4141.0256,4122.0513,4126.1538
4130.2564,4134.359,4135.8974,4136.9231,4126.1538,4131.7949,4136.4103,4138.9744,4136.9231,4141.0256,4117.9487,4125.641
4126.1538,4131.7949,4130.7692,4134.359,4130.2564,4126.6667,4136.9231,4135.3846,4130.2564,4135.8974,4118.4615,4122.0513
4124.1026,4127.6923,4131.7949,4133.8462,4132.8205,4128.7179,4136.4103,4136.4103,4132.8205,4142.5641,4124.6154,4123.5897
4128.2051,4131.7949,4135.8974,4134.359,4128.2051,4128.7179,4136.4103,4140,4136.4103,4150.7692,4125.1282,4128.7179
4134.359,4134.8718,4136.4103,4134.8718,4127.1795,4126.6667,4135.8974,4136.4103,4140,4150.7692,4128.2051,4133.3333
4127.1795,4127.1795,4131.7949,4126.6667,4127.6923,4126.1538,4133.3333,4126.6667,4137.9487,4146.6667,4127.1795,4126.1538
4121.5385,4120.5128,4133.8462,4121.0256,4123.0769,4124.1026,4132.3077,4125.1282,4130.7692,4143.5897,4118.9744,4120.5128
4132.3077,4124.1026,4140,4131.2821,4122.0513,4127.1795,4134.359,4135.3846,4134.8718,4148.2051,4121.0256,4130.7692
4140.5128,4131.2821,4142.0513,4141.5385,4131.7949,4134.8718,4137.4359,4140,4138.4615,4155.3846,4128.2051,4140
4136.4103,4133.8462,4141.5385,4139.4872,4139.4872,4137.4359,4137.9487,4137.4359,4129.2308,4153.3333,4127.1795,4138.4615
4135.8974,4134.359,4139.4872,4137.4359,4137.9487,4136.9231,4138.4615,4136.9231,4128.2051,4149.2308,4124.6154,4137.9487
4137.9487,4129.7436,4140,4140.5128,4132.8205,4136.4103,4139.4872,4138.9744,4135.3846,4151.7949,4124.1026,4136.4103
4133.3333,4123.5897,4141.0256,4137.4359,4128.7179,4132.8205,4137.9487,4138.9744,4128.7179,4154.359,4124.1026,4130.7692
4121.5385,4121.5385,4135.8974,4126.1538,4129.7436,4126.1538,4136.9231,4136.4103,4114.8718,4143.0769,4120.5128,4120
4123.5897,4128.2051,4133.8462,4125.641,4133.8462,4126.6667,4137.4359,4135.8974,4115.3846,4138.9744,4116.4103,4118.9744
4138.9744,4132.8205,4141.0256,4137.4359,4136.4103,4129.2308,4137.9487,4140,4130.7692,4150.7692,4126.1538,4133.3333
4136.9231,4127.6923,4141.5385,4139.4872,4135.8974,4126.1538,4135.3846,4139.4872,4137.9487,4151.7949,4132.8205,4137.4359
4130.7692,4129.2308,4136.9231,4134.8718,4137.9487,4129.7436,4136.4103,4136.9231,4135.8974,4145.1282,4129.7436,4132.3077
4138.4615,4136.4103,4140,4136.9231,4141.0256,4136.9231,4140,4140.5128,4136.9231,4148.7179,4132.8205,4136.9231
4141.0256,4135.3846,4140,4137.4359,4140,4136.4103,4138.4615,4140.5128,4138.9744,4150.2564,4140,4139.4872
4136.9231,4133.8462,4135.8974,4135.3846,4139.4872,4134.8718,4137.4359,4142.0513,4136.9231,4146.1538,4139.4872,4133.3333
4141.0256,4136.4103,4137.9487,4137.9487,4141.5385,4139.4872,4141.0256,4150.2564,4137.9487,4150.2564,4138.9744,4135.3846
4143.5897,4134.8718,4141.5385,4139.4872,4140,4138.4615,4142.0513,4154.359,4140,4155.3846,4142.5641,4143.0769
4138.9744,4132.3077,4141.0256,4138.4615,4138.9744,4134.359,4140.5128,4149.7436,4135.8974,4150.7692,4138.4615,4138.9744
4144.1026,4132.3077,4142.0513,4140,4139.4872,4136.9231,4141.0256,4150.2564,4137.9487,4150.7692,4136.9231,4138.9744
4150.7692,4129.2308,4145.1282,4141.0256,4141.0256,4138.9744,4143.0769,4153.8462,4141.5385,4153.8462,4139.4872,4144.6154
4144.1026,4129.2308,4142.0513,4138.4615,4140,4136.9231,4141.5385,4147.1795,4134.8718,4147.6923,4137.9487,4140.5128
4137.9487,4135.3846,4139.4872,4137.9487,4136.9231,4135.8974,4138.4615,4137.9487,4132.3077,4146.1538,4137.9487,4137.4359
4140,4133.3333,4137.9487,4140,4136.4103,4135.8974,4136.9231,4137.4359,4135.8974,4153.3333,4136.4103,4139.4872
4134.8718,4124.6154,4133.3333,4137.9487,4136.4103,4133.8462,4138.9744,4135.8974,4130.2564,4151.2821,4125.1282,4132.8205
4130.7692,4127.6923,4132.8205,4136.9231,4135.8974,4136.4103,4140,4136.9231,4126.6667,4144.6154,4120,4127.6923
4136.4103,4133.8462,4138.9744,4138.9744,4135.3846,4135.3846,4140,4147.6923,4136.9231,4150.2564,4131.7949,4133.8462
4139.4872,4132.3077,4138.4615,4135.8974,4134.359,4126.1538,4139.4872,4152.8205,4143.0769,4157.9487,4138.9744,4137.9487
4140,4129.2308,4140.5128,4135.3846,4134.8718,4127.1795,4138.4615,4148.2051,4137.4359,4152.8205,4137.4359,4135.8974
4140,4132.3077,4147.6923,4140.5128,4137.9487,4136.4103,4137.9487,4149.2308,4136.4103,4151.2821,4136.4103,4136.4103
4138.9744,4135.3846,4145.1282,4136.4103,4138.9744,4137.9487,4140.5128,4154.359,4141.0256,4158.9744,4138.9744,4141.0256
4136.9231,4130.2564,4136.9231,4126.6667,4131.7949,4133.8462,4142.0513,4153.3333,4135.3846,4152.8205,4135.8974,4136.9231
4131.7949,4124.6154,4137.4359,4122.5641,4125.1282,4127.6923,4137.9487,4144.6154,4123.0769,4140.5128,4122.5641,4127.1795
4131.7949,4129.2308,4140,4124.1026,4129.2308,4125.1282,4135.8974,4138.9744,4119.4872,4144.1026,4115.8974,4129.2308
4137.9487,4133.3333,4139.4872,4124.1026,4137.4359,4131.2821,4139.4872,4140.5128,4125.1282,4152.3077,4123.0769,4135.3846
4140.5128,4130.2564,4143.0769,4126.6667,4137.4359,4137.9487,4145.641,4144.6154,4126.6667,4151.7949,4125.641,4133.3333
4141.0256,4134.8718,4149.2308,4133.3333,4135.3846,4136.4103,4152.3077,4149.2308,4124.6154,4149.7436,4124.1026,4132.3077
4145.1282,4136.9231,4150.2564,4136.9231,4137.4359,4132.3077,4153.8462,4153.8462,4126.1538,4156.9231,4130.7692,4136.9231
4140.5128,4125.1282,4142.5641,4131.7949,4132.3077,4129.2308,4144.1026,4147.6923,4124.6154,4156.4103,4132.3077,4133.3333
4132.8205,4127.6923,4135.3846,4124.6154,4125.641,4132.3077,4136.4103,4135.8974,4120,4142.5641,4125.1282,4125.1282
4137.4359,4138.9744,4140.5128,4130.7692,4133.3333,4138.9744,4140.5128,4139.4872,4122.0513,4142.5641,4130.7692,4132.3077
4141.0256,4134.8718,4148.2051,4135.8974,4140,4137.9487,4144.1026,4148.2051,4125.641,4150.7692,4139.4872,4135.8974
4138.4615,4129.7436,4152.3077,4131.2821,4135.8974,4134.8718,4142.5641,4143.5897,4124.6154,4150.2564,4130.2564,4128.2051
4136.9231,4130.2564,4152.8205,4127.6923,4132.3077,4136.4103,4143.0769,4136.9231,4124.6154,4148.2051,4118.4615,4125.1282
4133.8462,4127.1795,4142.5641,4126.1538,4134.359,4131.7949,4143.0769,4134.8718,4121.5385,4144.6154,4117.4359,4124.1026
4134.359,4126.6667,4137.9487,4128.2051,4135.8974,4129.2308,4141.0256,4131.7949,4120.5128,4140.5128,4120,4123.0769
4142.5641,4134.359,4149.2308,4135.3846,4137.4359,4135.3846,4141.5385,4133.3333,4127.6923,4145.641,4122.5641,4131.2821
4146.6667,4140,4153.8462,4136.4103,4137.4359,4138.4615,4141.0256,4133.8462,4127.6923,4151.2821,4124.6154,4138.4615
4136.9231,4135.8974,4145.1282,4128.2051,4136.9231,4134.359,4138.9744,4124.1026,4123.0769,4146.6667,4118.4615,4131.7949
4135.8974,4134.8718,4146.6667,4131.7949,4139.4872,4135.3846,4140,4124.1026,4125.641,4147.1795,4115.3846,4130.2564
4152.8205,4142.5641,4157.4359,4142.5641,4140.5128,4140,4142.0513,4136.4103,4131.7949,4155.3846,4122.5641,4143.5897
4155.8974,4136.9231,4155.3846,4140.5128,4138.9744,4138.4615,4141.5385,4138.4615,4133.8462,4155.3846,4125.641,4143.0769
4141.0256,4125.641,4149.7436,4133.3333,4135.3846,4137.9487,4142.0513,4136.4103,4135.3846,4153.3333,4122.5641,4134.359
4141.0256,4129.7436,4152.8205,4132.8205,4133.8462,4138.4615,4141.5385,4137.9487,4133.8462,4155.8974,4116.9231,4137.4359
4142.5641,4132.8205,4150.2564,4129.2308,4134.8718,4136.4103,4136.9231,4130.7692,4121.5385,4148.7179,4108.2051,4133.3333
4128.7179,4127.1795,4138.9744,4122.5641,4135.3846,4134.359,4134.359,4122.0513,4112.8205,4137.4359,4103.5897,4120
4125.1282,4126.6667,4134.8718,4125.1282,4135.3846,4134.8718,4135.8974,4121.5385,4117.9487,4133.8462,4107.6923,4116.9231
4132.3077,4128.7179,4137.9487,4126.6667,4135.8974,4136.9231,4137.9487,4124.6154,4123.0769,4136.4103,4106.6667,4123.0769
4131.7949,4130.2564,4138.4615,4123.0769,4136.4103,4136.4103,4138.4615,4130.7692,4122.5641,4142.0513,4107.6923,4128.7179
4136.4103,4136.4103,4141.5385,4128.7179,4138.4615,4136.4103,4138.9744,4134.359,4127.6923,4146.1538,4116.9231,4134.359
4145.1282,4137.9487,4148.7179,4137.9487,4139.4872,4138.4615,4140,4135.8974,4137.9487,4147.1795,4123.5897,4140.5128
4140,4129.2308,4150.2564,4138.9744,4136.9231,4136.9231,4140.5128,4137.9487,4140,4145.1282,4122.0513,4138.9744
4134.359,4123.5897,4144.6154,4135.3846,4136.4103,4135.8974,4137.9487,4132.3077,4132.8205,4141.0256,4114.359,4132.3077
4137.9487,4122.5641,4138.9744,4126.6667,4137.4359,4137.4359,4135.8974,4126.1538,4126.6667,4142.5641,4106.6667,4128.2051
4138.9744,4124.1026,4140,4123.0769,4137.4359,4138.9744,4138.9744,4133.3333,4129.7436,4144.1026,4110.7692,4131.7949
4141.0256,4129.2308,4145.1282,4132.3077,4137.9487,4137.9487,4142.5641,4138.9744,4134.8718,4145.1282,4116.4103,4141.5385
4142.0513,4128.7179,4143.0769,4133.3333,4138.9744,4137.9487,4142.0513,4135.8974,4131.2821,4144.1026,4109.2308,4138.4615
4136.4103,4126.6667,4135.8974,4122.0513,4139.4872,4140,4140.5128,4136.4103,4122.0513,4138.9744,4103.0769,4125.1282
4132.8205,4127.6923,4133.3333,4122.0513,4137.4359,4136.9231,4140,4132.3077,4123.0769,4133.3333,4106.6667,4123.5897
4134.359,4129.2308,4133.3333,4125.641,4137.9487,4134.359,4137.4359,4126.1538,4125.641,4130.7692,4105.641,4126.1538
4137.9487,4126.6667,4135.8974,4123.5897,4139.4872,4135.3846,4138.4615,4133.8462,4125.1282,4137.4359,4106.1538,4126.1538
4139.4872,4123.5897,4137.9487,4122.0513,4134.8718,4130.2564,4139.4872,4139.4872,4127.6923,4144.1026,4111.2821,4129.7436
4131.7949,4123.5897,4132.3077,4114.8718,4129.2308,4120.5128,4131.7949,4129.7436,4126.1538,4137.9487,4099.4872,4125.641
4121.5385,4121.5385,4124.1026,4106.6667,4126.1538,4119.4872,4125.1282,4122.0513,4122.5641,4127.1795,4084.6154,4115.8974
4120,4121.0256,4122.5641,4108.7179,4124.1026,4123.5897,4123.0769,4120,4119.4872,4127.1795,4088.7179,4118.9744
4122.5641,4125.641,4124.1026,4114.359,4124.1026,4122.0513,4123.0769,4118.9744,4115.8974,4132.3077,4091.7949,4122.5641
4121.5385,4123.5897,4126.6667,4114.359,4125.1282,4122.0513,4128.7179,4122.0513,4113.3333,4130.7692,4083.0769,4116.9231
4122.0513,4119.4872,4133.3333,4111.7949,4124.6154,4122.5641,4135.3846,4122.5641,4116.9231,4132.8205,4082.0513,4118.9744
4132.8205,4127.1795,4138.4615,4111.2821,4123.5897,4122.0513,4136.4103,4125.1282,4124.1026,4138.9744,4093.3333,4131.2821
4140.5128,4132.8205,4135.8974,4110.7692,4124.1026,4124.6154,4136.4103,4133.3333,4122.5641,4143.5897,4103.0769,4137.9487
4139.4872,4126.6667,4134.8718,4112.3077,4127.1795,4126.1538,4137.4359,4137.9487,4123.0769,4149.2308,4105.641,4140.5128
4147.1795,4123.0769,4145.641,4117.9487,4128.7179,4126.6667,4136.4103,4137.4359,4132.3077,4155.8974,4107.6923,4147.1795
4153.8462,4126.6667,4150.2564,4121.5385,4125.641,4126.1538,4136.4103,4138.4615,4138.4615,4153.8462,4107.1795,4151.2821
4144.6154,4125.641,4142.0513,4121.5385,4122.5641,4125.641,4138.4615,4140,4136.4103,4152.3077,4099.4872,4147.6923
4143.0769,4122.0513,4143.0769,4118.4615,4123.5897,4126.1538,4138.4615,4140.5128,4137.4359,4156.9231,4097.9487,4145.641
4153.8462,4123.0769,4153.8462,4116.9231,4122.0513,4125.641,4137.4359,4136.4103,4142.0513,4160.5128,4106.1538,4152.3077
4156.4103,4124.6154,4149.7436,4117.9487,4121.0256,4123.5897,4135.8974,4130.7692,4143.5897,4159.4872,4113.3333,4156.4103
4152.3077,4125.1282,4138.9744,4121.5385,4129.2308,4125.641,4136.9231,4134.8718,4143.0769,4151.7949,4113.8462,4154.359
4151.7949,4126.1538,4140,4118.9744,4135.8974,4129.2308,4138.9744,4140.5128,4143.0769,4148.7179,4112.8205,4152.3077
4148.7179,4125.1282,4140,4114.359,4127.6923,4129.7436,4138.4615,4136.9231,4141.5385,4149.2308,4107.1795,4143.0769
4146.1538,4125.641,4136.9231,4116.9231,4120,4128.7179,4137.9487,4134.359,4133.8462,4146.6667,4095.8974,4137.9487
4143.0769,4130.2564,4137.4359,4115.8974,4122.5641,4127.6923,4135.8974,4131.7949,4130.7692,4142.0513,4092.8205,4142.0513
4137.9487,4131.2821,4131.7949,4110.7692,4121.5385,4124.6154,4129.7436,4126.1538,4131.2821,4137.4359,4094.359,4135.8974
4137.4359,4128.7179,4127.6923,4111.7949,4116.4103,4122.5641,4126.1538,4124.1026,4131.2821,4140,4094.8718,4128.7179
4137.9487,4126.6667,4133.3333,4115.8974,4118.4615,4120.5128,4124.1026,4125.1282,4131.7949,4140.5128,4089.2308,4132.3077
4138.9744,4124.6154,4137.9487,4117.4359,4121.5385,4117.4359,4121.5385,4122.5641,4130.7692,4138.4615,4086.6667,4137.9487
4143.5897,4128.2051,4139.4872,4122.5641,4122.5641,4118.9744,4120.5128,4122.5641,4133.8462,4146.6667,4097.4359,4141.0256
4141.0256,4130.2564,4135.3846,4122.0513,4123.5897,4122.5641,4123.5897,4130.2564,4131.7949,4146.6667,4103.0769,4138.9744
4133.8462,4125.1282,4125.1282,4112.3077,4124.1026,4121.5385,4123.5897,4135.8974,4122.5641,4136.4103,4093.8462,4133.3333
4135.3846,4123.5897,4126.1538,4113.3333,4123.5897,4121.0256,4123.0769,4135.8974,4123.0769,4140,4093.3333,4133.3333
4140.5128,4129.2308,4136.9231,4120.5128,4124.6154,4124.6154,4126.6667,4136.4103,4130.2564,4146.1538,4106.6667,4138.4615
4140.5128,4130.2564,4136.9231,4120,4124.6154,4128.2051,4130.2564,4136.4103,4132.8205,4141.5385,4112.8205,4138.9744
4141.0256,4126.1538,4131.7949,4118.9744,4123.0769,4125.1282,4129.7436,4136.4103,4130.2564,4141.5385,4110.7692,4136.9231
4145.1282,4127.1795,4137.4359,4121.0256,4123.5897,4123.0769,4129.2308,4138.4615,4133.8462,4148.2051,4112.3077,4141.0256
4144.1026,4128.7179,4140,4121.0256,4125.1282,4127.6923,4129.2308,4138.9744,4137.9487,4143.0769,4110.2564,4143.0769
4132.8205,4127.1795,4128.2051,4114.359,4123.0769,4123.5897,4125.1282,4129.7436,4134.359,4134.8718,4104.1026,4134.8718
4129.7436,4122.5641,4125.1282,4112.3077,4120,4113.3333,4118.4615,4122.0513,4131.2821,4139.4872,4103.5897,4132.3077
4135.3846,4121.5385,4130.7692,4117.9487,4120.5128,4115.8974,4121.0256,4124.6154,4135.3846,4144.1026,4101.5385,4134.8718
4130.7692,4125.1282,4128.7179,4118.4615,4121.0256,4122.5641,4124.1026,4125.641,4133.8462,4137.9487,4091.7949,4129.2308
4123.5897,4124.6154,4126.1538,4110.2564,4120,4120.5128,4123.0769,4121.5385,4123.0769,4131.2821,4084.6154,4124.6154
4122.5641,4122.0513,4129.7436,4107.1795,4120.5128,4120.5128,4125.641,4127.1795,4126.1538,4133.8462,4086.1538,4124.6154
4124.6154,4126.1538,4133.8462,4112.8205,4122.0513,4123.0769,4129.2308,4139.4872,4138.9744,4140.5128,4092.3077,4127.6923
4130.2564,4132.3077,4134.8718,4117.9487,4122.0513,4119.4872,4125.1282,4137.4359,4141.0256,4141.5385,4100.5128,4132.3077
4135.3846,4130.7692,4136.9231,4122.5641,4121.5385,4118.9744,4121.0256,4125.1282,4137.9487,4142.0513,4107.1795,4131.2821
4128.2051,4123.5897,4136.9231,4122.5641,4124.1026,4123.0769,4124.6154,4125.641,4136.4103,4142.5641,4107.6923,4127.1795
4120.5128,4122.5641,4131.2821,4118.9744,4123.5897,4121.5385,4126.1538,4135.8974,4138.4615,4137.9487,4102.0513,4126.6667
4126.6667,4124.6154,4128.7179,4121.0256,4118.4615,4120,4123.0769,4135.3846,4141.0256,4138.4615,4101.5385,4129.7436
4126.6667,4123.0769,4130.7692,4121.5385,4115.3846,4121.0256,4122.5641,4130.7692,4137.4359,4138.9744,4103.5897,4130.7692
4125.641,4125.1282,4137.4359,4121.5385,4120.5128,4120.5128,4123.0769,4135.3846,4137.9487,4138.9744,4105.1282,4136.4103
4136.4103,4128.2051,4138.4615,4125.1282,4122.5641,4119.4872,4123.0769,4136.9231,4149.7436,4144.6154,4114.8718,4141.0256
4141.0256,4126.1538,4136.9231,4126.6667,4123.0769,4122.5641,4123.0769,4132.3077,4155.8974,4146.1538,4124.1026,4138.4615
4134.8718,4126.1538,4141.0256,4126.1538,4126.6667,4128.2051,4126.1538,4135.8974,4153.8462,4143.0769,4122.0513,4135.8974
4130.7692,4130.2564,4140.5128,4127.1795,4128.7179,4128.2051,4127.6923,4140,4152.3077,4138.9744,4117.9487,4134.8718
4127.1795,4128.7179,4134.359,4127.1795,4127.6923,4124.1026,4127.6923,4136.4103,4152.8205,4133.8462,4120,4129.7436
4122.0513,4123.0769,4133.3333,4124.6154,4126.1538,4123.0769,4126.1538,4133.3333,4152.8205,4132.3077,4119.4872,4124.1026
4122.0513,4122.0513,4136.4103,4123.0769,4126.1538,4123.5897,4124.1026,4134.8718,4155.3846,4132.8205,4114.359,4125.641
4122.0513,4125.641,4131.7949,4122.0513,4126.6667,4121.0256,4125.641,4135.8974,4155.8974,4130.2564,4109.7436,4123.0769
4117.4359,4125.641,4126.6667,4120,4123.5897,4119.4872,4125.641,4128.7179,4152.3077,4129.2308,4104.6154,4114.359
4115.8974,4122.5641,4129.2308,4120,4120.5128,4120.5128,4124.1026,4125.641,4148.7179,4132.3077,4103.5897,4114.359
4117.9487,4128.2051,4134.359,4122.0513,4120.5128,4124.1026,4131.7949,4135.3846,4154.359,4134.359,4104.6154,4119.4872
4118.4615,4133.3333,4135.8974,4122.5641,4123.5897,4126.6667,4140,4143.5897,4162.5641,4135.3846,4103.5897,4117.9487
4121.0256,4129.7436,4132.8205,4122.5641,4125.641,4124.6154,4133.8462,4138.9744,4162.0513,4137.9487,4106.1538,4122.5641
4123.5897,4126.1538,4131.2821,4122.5641,4123.5897,4122.0513,4128.2051,4134.359,4162.5641,4134.8718,4107.6923,4126.1538
4118.9744,4124.6154,4135.3846,4122.0513,4124.1026,4123.0769,4135.3846,4135.8974,4167.1795,4134.359,4103.5897,4115.3846
4116.9231,4126.6667,4140,4122.0513,4126.6667,4128.2051,4138.4615,4139.4872,4170.2564,4140.5128,4104.1026,4114.8718
4122.0513,4131.2821,4138.4615,4124.1026,4128.2051,4131.2821,4137.4359,4138.4615,4169.2308,4140,4106.1538,4125.1282
4124.6154,4136.4103,4137.4359,4126.1538,4130.2564,4129.7436,4137.9487,4135.3846,4166.1538,4134.8718,4108.7179,4125.1282
4121.5385,4134.359,4142.5641,4130.7692,4135.8974,4132.3077,4137.4359,4135.8974,4169.7436,4133.8462,4108.7179,4117.9487
4122.5641,4130.2564,4147.1795,4138.4615,4139.4872,4137.4359,4136.9231,4136.9231,4178.4615,4137.4359,4107.6923,4121.0256
4127.6923,4130.7692,4150.2564,4140.5128,4138.4615,4138.4615,4140,4134.8718,4188.2051,4144.1026,4109.2308,4129.7436
4126.1538,4134.359,4151.2821,4137.9487,4137.9487,4135.8974,4138.9744,4135.3846,4186.1538,4145.641,4110.7692,4128.2051
4124.1026,4136.9231,4154.8718,4137.9487,4137.9487,4134.359,4134.8718,4134.8718,4179.4872,4137.9487,4108.7179,4125.1282
4122.5641,4133.8462,4152.3077,4138.4615,4137.4359,4131.7949,4134.8718,4127.6923,4177.9487,4131.7949,4105.641,4122.5641
4120,4135.3846,4145.641,4137.9487,4138.4615,4132.8205,4134.8718,4122.5641,4183.0769,4129.2308,4103.5897,4120.5128
4122.5641,4136.9231,4147.1795,4137.9487,4137.4359,4138.4615,4134.8718,4126.6667,4186.6667,4134.359,4101.0256,4124.6154
4123.5897,4130.7692,4148.7179,4136.4103,4133.8462,4135.8974,4136.9231,4129.2308,4183.5897,4135.3846,4102.0513,4124.1026
4116.9231,4128.7179,4142.0513,4135.8974,4132.8205,4126.6667,4137.9487,4126.6667,4183.0769,4127.6923,4106.6667,4114.8718
4113.3333,4130.7692,4140,4136.9231,4129.7436,4127.6923,4137.4359,4130.7692,4185.641,4127.6923,4109.7436,4111.7949
4120,4128.2051,4150.2564,4136.4103,4125.1282,4135.8974,4138.4615,4138.9744,4186.1538,4131.7949,4111.7949,4119.4872
4125.1282,4127.1795,4155.3846,4135.3846,4124.6154,4135.8974,4137.9487,4138.4615,4187.6923,4131.2821,4112.8205,4125.641
4121.0256,4128.2051,4150.2564,4137.4359,4126.1538,4133.8462,4134.8718,4133.8462,4185.1282,4125.1282,4108.7179,4122.5641
4118.9744,4125.1282,4150.2564,4139.4872,4125.641,4138.4615,4135.3846,4136.4103,4182.5641,4125.1282,4104.6154,4116.4103
4122.0513,4127.6923,4153.8462,4140,4125.641,4136.9231,4137.9487,4140,4186.6667,4129.7436,4107.1795,4118.4615
4123.0769,4132.3077,4154.359,4140.5128,4128.7179,4132.3077,4139.4872,4139.4872,4186.1538,4127.1795,4103.5897,4121.0256
4122.0513,4133.3333,4154.8718,4142.5641,4129.7436,4135.3846,4138.9744,4138.4615,4184.6154,4124.6154,4096.9231,4122.5641
4121.0256,4130.2564,4154.8718,4142.5641,4126.6667,4138.9744,4138.4615,4136.4103,4190.7692,4126.6667,4099.4872,4122.5641
4122.5641,4126.6667,4154.8718,4141.5385,4128.2051,4135.3846,4137.4359,4132.8205,4195.3846,4129.2308,4104.6154,4122.0513
4126.1538,4128.7179,4156.4103,4146.1538,4131.7949,4132.8205,4136.4103,4137.9487,4196.9231,4132.3077,4108.2051,4127.6923
4126.1538,4133.3333,4156.9231,4150.7692,4131.7949,4135.8974,4137.9487,4143.5897,4201.0256,4134.359,4111.2821,4132.8205
4124.1026,4128.2051,4158.9744,4151.7949,4132.3077,4139.4872,4137.4359,4142.0513,4203.0769,4134.359,4114.8718,4132.3077
4131.7949,4122.0513,4165.641,4153.3333,4132.3077,4131.7949,4129.7436,4137.4359,4200.5128,4133.3333,4118.9744,4132.8205
4140.5128,4128.7179,4170.7692,4155.8974,4131.2821,4125.641,4126.6667,4137.9487,4201.5385,4140,4120,4139.4872
4135.8974,4131.2821,4170.2564,4156.9231,4131.2821,4133.3333,4130.7692,4138.4615,4205.1282,4142.0513,4113.8462,4140
4126.1538,4123.0769,4167.1795,4154.8718,4128.7179,4138.9744,4130.2564,4135.8974,4204.6154,4135.3846,4107.6923,4133.8462
4126.6667,4125.641,4167.1795,4156.9231,4128.2051,4136.4103,4130.2564,4138.4615,4204.1026,4137.4359,4109.2308,4134.359
4132.3077,4130.7692,4167.1795,4156.9231,4132.8205,4136.4103,4131.7949,4138.4615,4203.0769,4141.0256,4108.2051,4137.4359
4132.3077,4127.6923,4168.7179,4152.8205,4131.2821,4132.3077,4125.1282,4127.1795,4200.5128,4138.4615,4098.9744,4132.8205
4130.7692,4124.6154,4171.2821,4150.7692,4129.2308,4124.6154,4120,4117.9487,4198.9744,4138.4615,4091.7949,4129.7436
4131.7949,4126.6667,4171.2821,4153.8462,4135.8974,4126.1538,4123.5897,4120.5128,4196.9231,4142.0513,4092.3077,4130.2564
4135.8974,4130.7692,4176.4103,4155.8974,4138.9744,4130.7692,4124.1026,4124.1026,4200.5128,4147.1795,4098.4615,4133.3333
4140.5128,4131.7949,4184.1026,4153.8462,4133.8462,4125.641,4121.5385,4123.0769,4212.3077,4153.8462,4103.0769,4140.5128
4136.4103,4129.2308,4180.5128,4151.2821,4131.2821,4120,4122.0513,4122.5641,4210.7692,4148.7179,4100,4137.4359
4126.6667,4123.5897,4170.7692,4150.7692,4131.2821,4122.5641,4122.0513,4123.0769,4202.5641,4139.4872,4091.7949,4130.2564
4123.5897,4122.0513,4168.7179,4148.2051,4130.2564,4125.641,4122.5641,4124.6154,4206.1538,4142.5641,4089.7436,4129.2308
4125.641,4122.0513,4170.2564,4140.5128,4124.1026,4122.0513,4122.0513,4120.5128,4205.1282,4142.0513,4090.2564,4128.7179
4122.5641,4121.5385,4169.2308,4141.5385,4122.5641,4121.5385,4121.5385,4114.8718,4201.0256,4134.359,4089.2308,4129.2308
4121.0256,4124.1026,4170.7692,4152.3077,4132.3077,4132.8205,4128.7179,4117.4359,4207.6923,4135.3846,4089.2308,4132.3077
4122.5641,4122.0513,4171.2821,4154.8718,4135.3846,4137.4359,4134.8718,4124.1026,4210.2564,4142.0513,4087.1795,4127.6923
4121.0256,4121.0256,4170.2564,4149.7436,4130.2564,4134.359,4136.9231,4133.3333,4207.1795,4137.9487,4084.1026,4122.0513
4121.5385,4125.641,4170.2564,4150.7692,4131.7949,4136.9231,4137.4359,4137.4359,4213.8462,4132.8205,4084.6154,4127.1795
4123.5897,4124.6154,4170.2564,4154.359,4132.8205,4138.4615,4131.7949,4128.7179,4215.8974,4134.8718,4081.0256,4127.1795
4116.9231,4122.5641,4166.6667,4148.2051,4124.6154,4127.6923,4124.6154,4119.4872,4205.641,4129.2308,4070.2564,4116.9231
4109.7436,4124.6154,4163.0769,4141.0256,4121.0256,4122.0513,4126.1538,4122.0513,4201.0256,4122.5641,4063.5897,4114.359
4114.8718,4125.641,4164.1026,4147.6923,4126.6667,4130.7692,4131.7949,4122.5641,4203.0769,4125.641,4062.0513,4117.9487
4116.9231,4125.1282,4167.6923,4151.2821,4130.2564,4133.3333,4127.6923,4113.3333,4202.0513,4129.2308,4057.9487,4116.4103
4115.3846,4125.1282,4169.7436,4147.6923,4130.2564,4129.2308,4123.5897,4111.7949,4204.6154,4130.2564,4061.5385,4114.8718
4115.8974,4124.6154,4168.7179,4148.2051,4131.2821,4127.1795,4126.1538,4121.0256,4208.7179,4133.3333,4067.1795,4120.5128
4112.8205,4125.1282,4166.6667,4150.2564,4130.2564,4127.6923,4128.2051,4125.1282,4211.2821,4135.3846,4064.1026,4125.641
4114.359,4125.1282,4168.2051,4150.7692,4128.2051,4132.8205,4128.7179,4122.0513,4212.8205,4134.359,4059.4872,4123.5897
4117.4359,4122.5641,4168.7179,4148.7179,4126.6667,4134.359,4127.1795,4120,4211.7949,4132.8205,4054.8718,4119.4872
4112.3077,4121.0256,4165.1282,4146.1538,4126.1538,4128.2051,4124.6154,4112.8205,4209.7436,4127.6923,4047.6923,4118.4615
4106.6667,4123.0769,4164.1026,4148.2051,4125.641,4123.5897,4122.0513,4105.641,4211.7949,4122.0513,4049.2308,4118.4615
4109.7436,4124.1026,4168.2051,4150.7692,4121.0256,4127.6923,4121.5385,4113.8462,4214.8718,4124.1026,4055.3846,4118.4615
4113.3333,4124.1026,4168.2051,4146.1538,4120,4131.7949,4126.6667,4123.5897,4218.4615,4123.5897,4054.8718,4116.9231
4116.4103,4123.5897,4167.1795,4148.2051,4123.5897,4135.3846,4136.4103,4124.1026,4228.2051,4122.5641,4055.3846,4121.0256
4121.5385,4123.0769,4170.7692,4155.3846,4124.6154,4137.4359,4136.9231,4123.5897,4232.8205,4128.2051,4057.4359,4127.1795
4118.9744,4122.5641,4167.1795,4148.2051,4123.0769,4131.2821,4127.1795,4123.0769,4229.2308,4128.7179,4049.7436,4122.5641
4115.8974,4123.5897,4158.9744,4141.5385,4121.5385,4126.6667,4122.5641,4121.5385,4230.7692,4125.641,4043.0769,4117.9487
4113.3333,4123.0769,4154.8718,4141.5385,4122.0513,4127.1795,4123.0769,4120.5128,4231.7949,4123.5897,4037.9487,4118.9744
4107.6923,4121.5385,4154.359,4140,4123.0769,4126.6667,4119.4872,4116.4103,4226.1538,4116.4103,4028.2051,4115.3846
4106.1538,4122.5641,4154.8718,4138.4615,4123.0769,4128.7179,4120.5128,4109.2308,4222.5641,4113.8462,4022.0513,4108.7179
4104.1026,4123.0769,4153.3333,4139.4872,4127.6923,4137.4359,4126.1538,4110.2564,4217.9487,4114.8718,4008.2051,4102.5641
4105.641,4121.5385,4154.8718,4147.6923,4131.2821,4142.5641,4126.6667,4115.3846,4217.9487,4114.8718,3990.7692,4104.6154
4113.8462,4122.5641,4155.8974,4153.3333,4126.6667,4137.4359,4124.6154,4116.9231,4224.6154,4116.4103,3985.641,4113.3333
4115.8974,4124.6154,4154.359,4151.2821,4126.1538,4134.359,4123.5897,4118.4615,4230.7692,4120,3988.2051,4118.4615
4118.9744,4125.1282,4157.4359,4151.2821,4133.8462,4136.9231,4123.0769,4122.0513,4244.6154,4127.6923,3990.7692,4122.5641
4120,4124.1026,4158.9744,4149.7436,4131.2821,4135.8974,4123.0769,4123.5897,4253.3333,4129.7436,3988.7179,4121.0256
4113.8462,4124.1026,4155.8974,4143.5897,4121.5385,4134.359,4123.5897,4122.5641,4249.2308,4126.1538,3977.4359,4117.9487
4113.3333,4125.641,4155.8974,4146.1538,4123.0769,4137.4359,4123.5897,4125.1282,4247.6923,4128.2051,3966.6667,4120.5128
4115.3846,4124.6154,4156.9231,4148.7179,4129.2308,4137.9487,4123.5897,4128.2051,4249.7436,4130.2564,3964.1026,4118.9744
4113.3333,4122.0513,4154.8718,4146.6667,4125.1282,4132.3077,4124.1026,4125.1282,4249.2308,4124.6154,3957.9487,4112.3077
4113.8462,4122.0513,4153.8462,4147.1795,4125.641,4131.2821,4123.0769,4121.5385,4254.8718,4123.0769,3951.2821,4113.8462
4116.4103,4124.1026,4156.4103,4145.641,4133.3333,4136.4103,4122.5641,4126.6667,4261.5385,4129.2308,3954.359,4121.0256
4114.8718,4124.1026,4158.9744,4144.1026,4131.2821,4136.4103,4123.5897,4127.6923,4257.9487,4127.6923,3954.8718,4121.5385
4110.2564,4122.5641,4154.8718,4145.641,4126.6667,4134.8718,4123.5897,4120,4252.3077,4118.9744,3946.6667,4115.3846
4113.8462,4124.1026,4154.8718,4148.7179,4132.8205,4138.9744,4124.6154,4120,4250.2564,4123.0769,3952.8205,4119.4872
4122.0513,4126.1538,4163.5897,4153.8462,4138.9744,4141.0256,4124.6154,4124.1026,4255.3846,4133.8462,3972.3077,4131.2821
4122.0513,4126.1538,4165.1282,4154.8718,4134.359,4136.9231,4122.0513,4121.5385,4262.0513,4132.8205,3976.4103,4128.7179
4113.8462,4123.5897,4159.4872,4147.6923,4132.3077,4137.4359,4123.0769,4120,4261.0256,4125.641,3966.6667,4116.9231
4115.8974,4123.0769,4164.1026,4147.6923,4138.4615,4143.5897,4129.2308,4125.641,4263.0769,4130.7692,3969.7436,4122.0513
4126.1538,4125.1282,4173.3333,4156.4103,4134.359,4142.5641,4128.7179,4127.6923,4274.8718,4142.5641,3981.0256,4133.3333
4125.641,4125.641,4172.3077,4153.8462,4124.6154,4136.4103,4123.5897,4125.641,4279.4872,4140.5128,3975.8974,4127.1795
4117.9487,4124.6154,4162.5641,4147.1795,4129.2308,4136.9231,4129.2308,4129.7436,4274.359,4128.7179,3963.0769,4121.0256
4112.3077,4123.5897,4153.8462,4141.5385,4135.8974,4140,4137.9487,4131.2821,4275.8974,4121.5385,3953.8462,4122.5641
4113.8462,4123.5897,4152.3077,4138.4615,4129.2308,4136.9231,4134.8718,4125.1282,4280.5128,4122.0513,3932.8205,4121.5385
4116.9231,4125.1282,4155.8974,4139.4872,4124.1026,4134.8718,4131.7949,4122.0513,4283.0769,4126.6667,3907.1795,4123.0769
4113.3333,4126.1538,4153.8462,4139.4872,4125.1282,4136.4103,4136.4103,4124.6154,4285.1282,4122.0513,3903.0769,4121.0256
4111.7949,4125.1282,4152.8205,4140.5128,4123.0769,4135.8974,4134.359,4123.5897,4286.1538,4117.4359,3917.4359,4118.9744
4119.4872,4124.1026,4156.4103,4141.5385,4121.0256,4135.3846,4129.7436,4121.0256,4290.7692,4128.2051,3925.1282,4124.1026
4120,4123.5897,4154.359,4140,4123.5897,4138.4615,4134.8718,4128.7179,4294.8718,4134.359,3923.0769,4124.1026
4112.3077,4124.1026,4147.6923,4140.5128,4127.1795,4140.5128,4139.4872,4139.4872,4296.4103,4125.1282,3925.1282,4118.9744
4109.2308,4125.1282,4142.5641,4140,4129.2308,4136.9231,4136.4103,4136.9231,4291.7949,4117.9487,3924.1026,4115.8974
4107.6923,4124.1026,4139.4872,4130.7692,4125.641,4133.3333,4132.8205,4123.5897,4280.5128,4113.3333,3914.8718,4109.7436
4105.641,4122.0513,4136.9231,4124.1026,4121.5385,4135.8974,4135.8974,4118.4615,4277.4359,4109.2308,3911.7949,4106.1538
4103.0769,4122.0513,4136.4103,4132.3077,4123.5897,4138.9744,4138.9744,4121.0256,4285.641,4108.7179,3921.0256,4110.7692
4107.1795,4124.6154,4140,4138.4615,4122.5641,4136.9231,4137.9487,4122.5641,4295.8974,4113.8462,3927.1795,4114.8718
4113.3333,4124.1026,4145.1282,4135.8974,4117.9487,4135.3846,4137.4359,4128.7179,4303.0769,4124.6154,3931.2821,4117.9487
4120.5128,4122.0513,4150.7692,4142.0513,4122.5641,4141.5385,4140,4138.4615,4308.7179,4131.2821,3944.6154,4124.6154
4132.3077,4127.6923,4156.9231,4153.3333,4131.2821,4144.6154,4139.4872,4141.0256,4308.7179,4132.3077,3958.4615,4133.8462
4137.9487,4136.9231,4155.3846,4153.3333,4128.2051,4139.4872,4136.4103,4138.9744,4309.2308,4127.6923,3962.0513,4137.9487
4139.4872,4138.9744,4151.2821,4149.7436,4124.1026,4135.3846,4135.8974,4140,4318.4615,4125.641,3970.2564,4141.5385
4147.1795,4134.359,4157.4359,4150.7692,4132.3077,4135.8974,4135.3846,4142.0513,4326.6667,4130.7692,3983.5897,4148.7179
4160.5128,4133.3333,4168.2051,4153.8462,4138.9744,4136.9231,4135.8974,4141.0256,4328.7179,4136.9231,3989.2308,4160.5128
4169.7436,4137.9487,4172.3077,4163.0769,4137.9487,4136.9231,4137.9487,4140.5128,4337.9487,4144.1026,4001.0256,4172.8205
4172.3077,4136.9231,4173.3333,4171.2821,4137.4359,4136.9231,4136.4103,4145.641,4347.6923,4151.2821,4017.4359,4173.8462
4168.2051,4127.1795,4176.4103,4167.6923,4132.8205,4137.9487,4134.8718,4151.7949,4348.7179,4157.4359,4014.359,4173.3333
4160,4122.0513,4172.8205,4159.4872,4123.5897,4138.9744,4136.9231,4154.8718,4341.5385,4154.359,3999.4872,4173.8462
4154.8718,4125.641,4167.1795,4155.8974,4123.0769,4137.9487,4135.3846,4150.7692,4331.2821,4145.641,3993.3333,4162.5641
4150.2564,4125.641,4168.7179,4154.359,4124.1026,4135.8974,4129.2308,4142.5641,4327.1795,4147.1795,3994.359,4152.8205
4142.5641,4120.5128,4165.1282,4150.2564,4116.4103,4131.2821,4124.1026,4135.8974,4322.0513,4148.7179,3986.1538,4148.7179
4134.359,4119.4872,4156.4103,4142.0513,4115.8974,4125.1282,4124.1026,4134.8718,4310.2564,4143.5897,3974.8718,4138.9744
4129.2308,4120,4154.8718,4137.9487,4122.5641,4124.1026,4124.1026,4135.8974,4306.1538,4137.9487,3970.7692,4132.3077
4126.1538,4120.5128,4155.8974,4144.1026,4123.5897,4128.2051,4122.5641,4132.8205,4305.641,4134.8718,3973.8462,4134.359
4125.1282,4123.5897,4156.4103,4152.3077,4122.5641,4135.3846,4130.2564,4134.8718,4303.0769,4137.9487,3975.8974,4134.8718
4124.1026,4123.0769,4153.8462,4152.3077,4123.5897,4138.9744,4135.8974,4136.4103,4301.0256,4136.9231,3972.8205,4129.2308
4123.0769,4122.0513,4152.3077,4149.2308,4121.0256,4136.4103,4128.2051,4126.6667,4300,4130.2564,3971.2821,4124.6154
4124.6154,4123.5897,4158.9744,4151.2821,4120.5128,4136.4103,4125.641,4126.1538,4301.0256,4132.8205,3976.4103,4129.7436
4125.1282,4124.6154,4163.5897,4156.9231,4123.5897,4139.4872,4135.8974,4134.8718,4302.0513,4137.4359,3982.0513,4135.8974
4125.641,4123.0769,4156.4103,4156.9231,4122.5641,4139.4872,4138.9744,4129.7436,4297.4359,4131.2821,3977.9487,4130.7692
4125.1282,4122.5641,4151.2821,4154.8718,4121.5385,4138.9744,4135.3846,4124.1026,4288.2051,4125.641,3973.8462,4124.1026
4116.9231,4124.1026,4150.7692,4155.8974,4122.0513,4137.4359,4134.359,4131.7949,4282.5641,4127.6923,3974.8718,4123.0769
4114.8718,4122.5641,4144.1026,4156.9231,4121.0256,4135.8974,4130.2564,4133.3333,4277.4359,4125.641,3975.8974,4118.4615
4118.9744,4121.0256,4138.4615,4155.8974,4121.0256,4133.3333,4125.1282,4126.6667,4275.3846,4118.4615,3975.3846,4116.9231
4118.9744,4121.0256,4138.4615,4155.8974,4121.0256,4133.3333,4125.1282,4126.6667,4275.3846,4118.4615,3975.3846,4116.9231
4114.359,4122.0513,4138.9744,4152.8205,4120,4128.7179,4124.1026,4123.0769,4277.4359,4118.4615,3975.8974,4121.0256
4112.3077,4122.5641,4137.4359,4151.2821,4121.5385,4128.2051,4124.6154,4120,4278.4615,4122.5641,3980.5128,4121.0256
4116.4103,4123.0769,4138.4615,4153.8462,4124.6154,4131.7949,4125.1282,4121.0256,4277.9487,4126.6667,3982.5641,4120
4112.8205,4123.0769,4138.4615,4151.2821,4122.0513,4130.7692,4127.6923,4123.0769,4272.8205,4123.0769,3975.3846,4118.9744
4105.641,4122.5641,4134.359,4143.0769,4121.5385,4126.1538,4128.2051,4114.8718,4267.6923,4117.4359,3969.2308,4114.8718
4109.2308,4122.5641,4134.359,4141.5385,4122.0513,4127.6923,4123.5897,4109.7436,4265.1282,4121.5385,3971.2821,4115.8974
4117.4359,4123.5897,4136.4103,4149.2308,4121.5385,4134.8718,4125.641,4115.8974,4267.1795,4123.0769,3976.9231,4119.4872
4120.5128,4124.1026,4138.9744,4153.8462,4129.2308,4138.9744,4136.9231,4120.5128,4270.7692,4121.0256,3980,4122.0513
4120.5128,4122.5641,4142.0513,4152.8205,4134.359,4135.3846,4133.3333,4120.5128,4270.2564,4124.6154,3980.5128,4124.6154
4117.4359,4121.0256,4138.4615,4152.3077,4126.1538,4132.8205,4123.0769,4118.4615,4265.641,4125.1282,3978.9744,4122.0513
4117.9487,4121.5385,4135.8974,4152.3077,4123.0769,4137.9487,4131.2821,4120.5128,4269.7436,4123.5897,3982.0513,4120
4119.4872,4123.5897,4138.4615,4152.8205,4128.2051,4141.5385,4138.9744,4130.2564,4276.9231,4131.7949,3988.2051,4124.1026
4114.8718,4123.0769,4133.8462,4152.3077,4126.1538,4137.4359,4130.7692,4137.9487,4270.7692,4132.8205,3982.5641,4119.4872
4108.7179,4122.0513,4123.0769,4151.2821,4121.5385,4135.3846,4125.641,4137.9487,4262.0513,4120.5128,3973.8462,4112.3077
4107.1795,4122.5641,4120,4151.2821,4121.5385,4137.4359,4130.7692,4135.3846,4260.5128,4117.4359,3978.9744,4115.3846
4111.7949,4123.0769,4124.6154,4152.3077,4128.2051,4138.4615,4135.3846,4132.3077,4263.0769,4124.6154,3990.2564,4120.5128
4118.9744,4124.1026,4132.8205,4153.8462,4134.359,4138.9744,4138.4615,4132.8205,4266.1538,4130.2564,3992.8205,4122.0513
4120.5128,4123.0769,4134.8718,4152.8205,4130.2564,4141.5385,4135.8974,4132.3077,4262.0513,4126.6667,3990.7692,4121.0256
4114.8718,4120.5128,4128.2051,4146.1538,4124.6154,4139.4872,4127.1795,4125.1282,4253.3333,4120.5128,3992.8205,4119.4872
4107.1795,4122.0513,4122.5641,4141.5385,4126.1538,4130.7692,4122.0513,4118.9744,4248.7179,4120,3990.2564,4120
4104.1026,4123.0769,4123.5897,4141.0256,4124.6154,4124.1026,4121.5385,4115.8974,4245.641,4119.4872,3982.0513,4117.4359
4101.5385,4120.5128,4122.5641,4138.9744,4121.0256,4123.0769,4121.0256,4111.2821,4243.0769,4114.8718,3978.9744,4108.7179
4102.0513,4121.5385,4120,4135.8974,4124.1026,4126.1538,4120.5128,4114.359,4242.0513,4116.9231,3982.5641,4104.6154
4105.1282,4123.5897,4121.5385,4137.4359,4123.5897,4126.1538,4123.5897,4121.5385,4238.9744,4126.1538,3984.1026,4109.2308
4105.1282,4119.4872,4122.0513,4137.4359,4120.5128,4123.5897,4124.1026,4121.5385,4238.9744,4123.5897,3983.0769,4113.3333
4103.0769,4117.9487,4123.5897,4135.3846,4121.5385,4124.1026,4121.5385,4124.1026,4245.641,4122.0513,3987.6923,4112.3077
4102.5641,4123.0769,4124.1026,4135.8974,4123.5897,4125.641,4121.5385,4128.2051,4246.6667,4131.7949,3989.2308,4111.7949
4102.5641,4125.1282,4122.0513,4136.9231,4123.0769,4126.1538,4123.5897,4123.0769,4243.0769,4131.2821,3988.2051,4114.359
4108.7179,4125.641,4125.1282,4140,4120.5128,4123.5897,4122.5641,4118.9744,4246.1538,4130.2564,3997.4359,4120
4111.7949,4125.641,4128.2051,4143.0769,4120,4123.0769,4120.5128,4120.5128,4248.7179,4136.4103,4006.1538,4123.5897
4106.6667,4124.6154,4125.641,4141.5385,4121.0256,4123.5897,4121.5385,4118.9744,4246.1538,4134.8718,4004.1026,4121.5385
4109.2308,4125.1282,4123.5897,4143.5897,4121.5385,4125.1282,4123.5897,4119.4872,4245.1282,4131.7949,4004.1026,4123.5897
4116.9231,4126.1538,4127.6923,4152.3077,4124.1026,4131.2821,4124.6154,4131.2821,4249.2308,4134.359,4012.3077,4128.2051
4115.8974,4124.6154,4127.1795,4152.3077,4127.1795,4133.8462,4123.5897,4140.5128,4250.7692,4130.2564,4016.4103,4128.2051
4110.2564,4122.5641,4120.5128,4146.1538,4127.6923,4130.2564,4123.0769,4137.4359,4242.5641,4122.0513,4014.359,4121.5385
4108.2051,4123.5897,4117.4359,4144.6154,4128.7179,4134.8718,4126.1538,4133.3333,4235.8974,4123.0769,4013.8462,4121.5385
4113.8462,4124.1026,4119.4872,4145.641,4127.6923,4138.9744,4127.1795,4127.6923,4236.9231,4126.1538,4016.9231,4126.1538
4118.4615,4122.5641,4119.4872,4147.6923,4123.0769,4128.2051,4123.5897,4117.9487,4232.3077,4123.5897,4015.8974,4120.5128
4116.4103,4123.5897,4121.0256,4152.8205,4121.0256,4127.1795,4124.6154,4117.9487,4229.7436,4125.641,4015.8974,4118.4615
4113.3333,4124.6154,4124.1026,4156.4103,4125.1282,4142.0513,4127.1795,4126.1538,4235.3846,4131.2821,4019.4872,4124.1026
4108.7179,4121.5385,4117.4359,4148.7179,4124.6154,4143.0769,4128.2051,4125.641,4226.1538,4125.1282,4011.2821,4115.8974
4104.6154,4120.5128,4109.2308,4143.5897,4121.5385,4136.4103,4134.359,4125.641,4211.7949,4121.5385,4003.0769,4106.6667
4109.2308,4122.5641,4113.3333,4149.7436,4124.6154,4140,4140,4134.8718,4217.9487,4128.2051,4012.8205,4114.8718
4117.4359,4124.6154,4120.5128,4154.8718,4124.6154,4137.9487,4131.7949,4136.4103,4230.2564,4132.3077,4024.1026,4124.1026
4119.4872,4125.1282,4121.5385,4152.8205,4122.5641,4126.6667,4123.0769,4124.6154,4229.7436,4132.3077,4027.6923,4126.1538
4120.5128,4125.641,4118.9744,4152.8205,4124.6154,4126.6667,4123.0769,4117.4359,4227.1795,4136.4103,4033.3333,4128.7179
4120.5128,4125.1282,4116.9231,4154.359,4125.641,4136.9231,4126.6667,4121.5385,4227.1795,4139.4872,4031.2821,4127.6923
4116.9231,4124.6154,4116.4103,4152.3077,4123.0769,4136.9231,4128.2051,4126.1538,4217.9487,4130.2564,4019.4872,4120
4117.9487,4124.1026,4114.8718,4151.7949,4125.1282,4132.8205,4124.1026,4127.6923,4211.7949,4124.1026,4021.0256,4118.9744
4122.0513,4125.641,4115.3846,4154.8718,4127.1795,4136.4103,4121.0256,4126.6667,4222.5641,4130.7692,4033.8462,4124.6154
4122.0513,4125.641,4118.4615,4155.3846,4125.1282,4138.4615,4127.6923,4125.1282,4228.2051,4133.3333,4036.9231,4127.6923
4123.0769,4123.0769,4118.9744,4153.8462,4124.1026,4136.4103,4136.9231,4128.2051,4220,4130.2564,4034.8718,4126.6667
4122.0513,4123.0769,4111.2821,4152.8205,4125.1282,4135.3846,4135.8974,4129.7436,4213.8462,4126.6667,4035.3846,4121.5385
4118.4615,4123.5897,4105.641,4152.8205,4123.5897,4135.3846,4124.6154,4123.5897,4213.3333,4124.6154,4034.359,4118.4615
4122.5641,4124.1026,4115.8974,4154.8718,4123.5897,4137.9487,4121.0256,4122.5641,4216.9231,4130.2564,4036.9231,4129.2308
4125.1282,4125.1282,4123.0769,4156.9231,4126.1538,4138.9744,4131.2821,4132.3077,4216.9231,4135.8974,4040.5128,4132.8205
4117.4359,4124.6154,4113.3333,4153.8462,4123.0769,4134.8718,4131.2821,4131.2821,4207.1795,4130.2564,4033.3333,4120.5128
4114.8718,4123.0769,4103.5897,4152.3077,4119.4872,4134.8718,4120.5128,4121.0256,4202.5641,4124.6154,4028.2051,4115.8974
4122.5641,4125.1282,4110.2564,4157.4359,4123.0769,4140.5128,4126.6667,4128.2051,4208.2051,4131.2821,4034.8718,4123.0769
4125.1282,4124.1026,4120,4159.4872,4122.5641,4140.5128,4136.4103,4141.5385,4208.7179,4134.8718,4041.0256,4129.7436
4121.5385,4122.0513,4117.9487,4154.8718,4114.359,4134.359,4127.1795,4137.4359,4202.5641,4132.3077,4034.359,4128.7179
4124.6154,4123.0769,4115.8974,4154.8718,4113.3333,4133.3333,4124.1026,4133.3333,4204.6154,4135.8974,4026.1538,4127.6923
4128.2051,4124.1026,4115.8974,4158.4615,4118.4615,4137.4359,4136.9231,4138.4615,4209.2308,4138.4615,4028.7179,4128.7179
4124.1026,4125.641,4113.3333,4156.4103,4117.9487,4133.3333,4138.4615,4133.3333,4203.0769,4134.359,4033.3333,4128.2051
4127.1795,4126.6667,4114.8718,4154.359,4118.4615,4125.641,4133.8462,4122.0513,4202.0513,4134.359,4041.0256,4132.3077
4132.3077,4124.1026,4117.4359,4154.359,4122.5641,4129.7436,4136.9231,4122.0513,4209.7436,4135.3846,4044.1026,4136.9231
4128.2051,4122.5641,4112.3077,4151.7949,4120.5128,4137.9487,4139.4872,4126.1538,4206.1538,4130.7692,4032.8205,4132.8205
4122.0513,4122.0513,4104.1026,4152.3077,4115.3846,4136.9231,4138.9744,4127.1795,4189.7436,4121.0256,4023.0769,4123.0769
4118.9744,4121.0256,4103.0769,4150.2564,4117.9487,4129.7436,4137.4359,4127.6923,4182.5641,4114.8718,4023.0769,4118.9744
4121.0256,4122.5641,4106.1538,4142.5641,4122.0513,4129.2308,4132.3077,4134.359,4188.7179,4116.4103,4028.2051,4121.0256
4121.5385,4124.1026,4104.1026,4142.0513,4123.0769,4131.7949,4127.6923,4134.8718,4189.7436,4118.9744,4027.6923,4125.1282
4116.4103,4124.1026,4098.9744,4144.6154,4121.5385,4127.1795,4124.6154,4124.6154,4186.1538,4119.4872,4027.1795,4126.1538
4114.8718,4125.1282,4094.8718,4140.5128,4119.4872,4123.5897,4126.6667,4118.4615,4183.5897,4117.4359,4025.641,4119.4872
4115.3846,4126.1538,4093.8462,4136.4103,4120,4126.6667,4134.8718,4121.0256,4179.4872,4114.359,4023.0769,4114.8718
4112.3077,4127.1795,4096.4103,4138.9744,4117.4359,4127.1795,4137.4359,4121.5385,4180,4115.8974,4028.2051,4120.5128
4114.8718,4128.2051,4102.5641,4138.9744,4113.3333,4124.1026,4129.7436,4126.1538,4184.1026,4120,4036.9231,4122.0513
4124.1026,4125.1282,4107.1795,4138.9744,4115.8974,4126.1538,4126.1538,4135.8974,4186.6667,4125.1282,4041.0256,4122.0513
4122.5641,4123.0769,4107.1795,4140,4119.4872,4126.6667,4126.6667,4132.3077,4186.6667,4128.2051,4040,4129.2308
4121.5385,4125.1282,4109.2308,4140,4117.9487,4127.6923,4128.7179,4123.5897,4188.7179,4133.8462,4043.0769,4132.8205
4126.6667,4124.6154,4111.7949,4141.5385,4120.5128,4133.8462,4136.4103,4130.2564,4190.7692,4142.0513,4047.6923,4132.3077
4122.0513,4121.5385,4108.2051,4140,4124.6154,4137.4359,4141.0256,4139.4872,4186.1538,4137.9487,4041.5385,4131.7949
4120.5128,4124.1026,4107.6923,4137.9487,4123.5897,4136.9231,4140,4140.5128,4181.0256,4129.2308,4035.3846,4132.3077
4123.5897,4124.6154,4109.7436,4138.4615,4124.6154,4135.8974,4137.9487,4140,4179.4872,4131.2821,4039.4872,4133.8462
4121.5385,4123.0769,4107.1795,4136.4103,4125.641,4135.8974,4134.8718,4140,4173.8462,4132.3077,4045.1282,4133.3333
4122.5641,4125.1282,4106.6667,4136.4103,4122.5641,4134.359,4136.9231,4142.0513,4173.8462,4130.7692,4046.6667,4134.359
4124.6154,4125.641,4106.6667,4136.9231,4122.5641,4129.2308,4138.9744,4137.4359,4177.4359,4130.2564,4045.1282,4131.2821
4120,4123.0769,4103.0769,4131.2821,4122.5641,4126.6667,4132.3077,4124.6154,4173.8462,4126.6667,4042.5641,4127.1795
4121.5385,4123.0769,4103.5897,4130.2564,4122.5641,4127.6923,4130.7692,4119.4872,4168.2051,4125.641,4042.0513,4130.2564
4125.641,4122.5641,4106.1538,4133.3333,4124.6154,4128.7179,4136.9231,4124.1026,4168.7179,4130.7692,4043.5897,4131.7949
4126.6667,4123.0769,4109.2308,4132.3077,4126.1538,4132.3077,4135.8974,4127.1795,4171.2821,4137.4359,4046.6667,4134.359
4131.2821,4127.1795,4112.8205,4133.8462,4125.1282,4136.9231,4133.8462,4132.8205,4169.2308,4138.9744,4053.3333,4140
4133.8462,4127.6923,4114.359,4136.4103,4124.6154,4137.4359,4136.9231,4138.9744,4168.7179,4136.9231,4057.4359,4142.0513
4132.3077,4122.5641,4112.8205,4137.4359,4124.6154,4137.4359,4138.4615,4135.8974,4170.2564,4137.4359,4053.8462,4140
4130.2564,4121.5385,4112.3077,4133.3333,4124.1026,4132.3077,4132.8205,4128.2051,4165.1282,4134.8718,4045.1282,4134.8718
4125.1282,4123.5897,4111.7949,4125.641,4124.1026,4123.5897,4127.1795,4123.5897,4155.8974,4130.2564,4038.9744,4131.2821
4122.0513,4123.0769,4108.7179,4121.0256,4124.6154,4123.5897,4126.6667,4127.1795,4152.3077,4131.7949,4042.0513,4131.2821
4124.6154,4123.5897,4106.6667,4124.6154,4126.1538,4128.7179,4129.2308,4136.9231,4153.3333,4137.4359,4049.2308,4134.359
4126.6667,4123.0769,4106.1538,4125.1282,4126.1538,4127.6923,4128.7179,4137.4359,4153.3333,4136.4103,4053.3333,4133.3333
4123.0769,4122.0513,4104.1026,4121.5385,4125.1282,4125.1282,4126.6667,4126.6667,4149.7436,4132.8205,4053.8462,4131.7949
4123.0769,4123.5897,4102.5641,4121.0256,4127.1795,4124.6154,4125.641,4120.5128,4144.1026,4136.4103,4054.359,4135.8974
4128.7179,4124.6154,4103.5897,4120,4126.1538,4122.5641,4124.1026,4120.5128,4140,4136.9231,4055.8974,4137.9487
4132.3077,4123.0769,4104.1026,4120.5128,4122.5641,4122.5641,4123.5897,4121.0256,4139.4872,4134.359,4058.4615,4135.8974
4131.7949,4123.5897,4106.1538,4122.0513,4127.6923,4125.641,4126.1538,4124.1026,4140.5128,4137.9487,4062.5641,4140.5128
4134.8718,4125.641,4113.3333,4123.0769,4137.4359,4127.6923,4127.6923,4127.1795,4141.0256,4140.5128,4064.1026,4145.641
4141.0256,4124.1026,4117.4359,4124.6154,4140,4126.6667,4124.1026,4124.6154,4140.5128,4141.0256,4064.1026,4143.5897
4139.4872,4122.0513,4113.3333,4123.0769,4136.4103,4124.1026,4121.0256,4121.5385,4137.9487,4143.0769,4066.6667,4143.5897
4136.9231,4124.6154,4107.6923,4122.0513,4132.8205,4125.641,4125.1282,4122.5641,4136.9231,4143.0769,4070.7692,4147.1795
4140,4125.641,4108.7179,4124.1026,4133.8462,4130.7692,4130.2564,4123.5897,4135.3846,4141.5385,4071.7949,4144.1026
4138.9744,4122.5641,4109.7436,4121.0256,4137.9487,4129.2308,4130.7692,4120,4128.2051,4140.5128,4068.2051,4137.4359
4133.3333,4124.1026,4108.7179,4111.7949,4134.8718,4125.1282,4131.7949,4115.3846,4122.5641,4141.0256,4063.5897,4138.9744
4134.359,4126.1538,4108.7179,4112.3077,4127.6923,4130.7692,4135.8974,4121.0256,4124.1026,4144.6154,4065.641,4140
4135.3846,4122.0513,4109.2308,4117.9487,4131.2821,4135.8974,4135.3846,4129.2308,4124.1026,4146.6667,4070.7692,4137.4359
4131.7949,4120,4108.7179,4113.3333,4132.8205,4128.7179,4130.2564,4127.6923,4120,4141.5385,4067.6923,4138.9744
4127.6923,4122.5641,4105.641,4107.1795,4125.1282,4122.0513,4125.1282,4123.5897,4117.9487,4136.4103,4060.5128,4136.9231
4127.1795,4123.5897,4106.6667,4108.2051,4122.0513,4123.5897,4127.1795,4126.1538,4118.4615,4140,4064.1026,4135.8974
4130.2564,4123.0769,4109.2308,4108.7179,4124.6154,4126.1538,4131.7949,4127.1795,4120,4141.5385,4071.2821,4138.4615
4129.7436,4122.0513,4107.6923,4107.1795,4130.7692,4126.6667,4129.7436,4125.1282,4118.4615,4135.3846,4070.2564,4138.4615
4130.2564,4124.1026,4107.1795,4109.2308,4135.3846,4131.2821,4127.1795,4126.1538,4111.7949,4134.359,4067.6923,4138.9744
4134.359,4125.641,4108.2051,4111.7949,4132.3077,4136.4103,4128.7179,4127.1795,4105.641,4135.8974,4066.1538,4144.1026
4134.8718,4126.1538,4108.2051,4112.3077,4129.2308,4134.8718,4129.2308,4124.6154,4105.1282,4136.4103,4063.0769,4141.5385
4130.7692,4126.6667,4108.2051,4111.7949,4129.2308,4128.7179,4126.6667,4124.6154,4106.1538,4140,4063.5897,4135.8974
4134.359,4126.1538,4110.2564,4114.359,4127.6923,4127.6923,4126.1538,4133.3333,4106.1538,4145.1282,4069.2308,4141.5385
4141.0256,4123.5897,4110.7692,4113.8462,4125.1282,4129.2308,4126.6667,4136.4103,4105.1282,4146.6667,4075.8974,4147.6923
4136.4103,4123.0769,4108.2051,4106.1538,4124.1026,4125.641,4122.0513,4123.5897,4098.4615,4142.0513,4067.1795,4141.0256
4133.8462,4125.1282,4106.6667,4104.1026,4126.1538,4122.0513,4118.9744,4116.9231,4092.8205,4137.4359,4055.8974,4136.9231
4136.9231,4124.6154,4108.2051,4110.2564,4131.2821,4126.1538,4122.5641,4126.1538,4093.8462,4144.1026,4064.1026,4145.1282
4137.4359,4122.5641,4107.1795,4112.3077,4131.7949,4133.3333,4125.1282,4128.2051,4094.359,4150.2564,4073.3333,4146.1538
4136.9231,4124.1026,4107.6923,4109.2308,4126.1538,4131.7949,4122.0513,4122.5641,4092.3077,4148.7179,4069.7436,4139.4872
4132.8205,4123.5897,4106.1538,4105.641,4123.0769,4123.5897,4120,4123.0769,4086.6667,4142.0513,4064.1026,4136.9231
4126.1538,4122.0513,4097.4359,4104.1026,4123.5897,4121.5385,4121.0256,4121.5385,4077.9487,4135.8974,4062.0513,4133.8462
4124.1026,4122.5641,4094.8718,4103.5897,4124.6154,4126.6667,4120.5128,4120,4078.9744,4132.8205,4064.6154,4131.7949
4129.7436,4122.0513,4101.5385,4104.1026,4125.641,4125.641,4120,4122.0513,4084.1026,4133.3333,4069.2308,4135.3846
4146.1538,4128.2051,4108.2051,4111.2821,4128.7179,4122.0513,4118.9744,4123.0769,4087.1795,4144.1026,4078.9744,4148.7179
4163.0769,4135.3846,4113.8462,4121.0256,4132.3077,4123.5897,4113.3333,4121.5385,4096.4103,4154.8718,4093.8462,4163.5897
4168.7179,4132.3077,4117.9487,4120.5128,4128.2051,4120,4107.6923,4118.9744,4101.5385,4156.4103,4109.7436,4168.2051
4174.359,4133.3333,4120,4122.5641,4120,4110.2564,4107.1795,4116.9231,4096.9231,4156.4103,4123.0769,4173.3333
4192.8205,4140.5128,4123.5897,4136.9231,4124.1026,4109.2308,4107.6923,4121.0256,4099.4872,4158.9744,4136.9231,4186.1538
4205.641,4142.5641,4128.7179,4142.5641,4130.2564,4111.7949,4107.1795,4120.5128,4103.0769,4159.4872,4143.0769,4197.4359
4210.2564,4144.1026,4131.7949,4141.0256,4127.1795,4111.7949,4107.6923,4109.7436,4097.9487,4158.4615,4145.1282,4201.0256
4225.641,4147.6923,4138.9744,4149.7436,4124.6154,4111.7949,4108.7179,4111.7949,4107.1795,4165.1282,4165.641,4215.3846
4241.5385,4141.0256,4146.1538,4157.4359,4125.641,4109.7436,4108.2051,4120,4128.2051,4173.3333,4184.1026,4235.8974
4234.8718,4134.359,4144.1026,4155.8974,4124.1026,4104.1026,4105.1282,4115.3846,4124.6154,4172.8205,4177.4359,4233.8462
4223.0769,4136.9231,4141.0256,4150.7692,4124.1026,4103.5897,4104.6154,4113.3333,4108.2051,4172.3077,4170.2564,4218.9744
4221.0256,4136.9231,4143.0769,4143.5897,4127.1795,4113.8462,4112.3077,4123.0769,4107.6923,4176.4103,4172.3077,4215.8974
4212.8205,4130.2564,4140,4138.9744,4125.1282,4120.5128,4120.5128,4125.641,4108.2051,4171.7949,4163.0769,4212.3077
4201.0256,4124.6154,4132.3077,4138.4615,4126.6667,4117.4359,4120.5128,4118.4615,4096.9231,4164.6154,4143.5897,4200.5128
4195.8974,4123.5897,4132.8205,4133.8462,4137.4359,4116.9231,4120.5128,4119.4872,4089.2308,4165.1282,4136.4103,4191.7949
4190.7692,4122.5641,4134.359,4126.1538,4135.8974,4123.0769,4124.1026,4125.641,4089.2308,4166.6667,4136.9231,4187.6923
4178.9744,4121.5385,4126.6667,4125.1282,4124.1026,4125.1282,4124.1026,4125.1282,4084.6154,4163.5897,4125.641,4181.0256
4169.7436,4121.5385,4118.9744,4126.1538,4127.1795,4123.5897,4122.0513,4122.0513,4078.9744,4158.9744,4111.2821,4171.7949
4163.5897,4121.5385,4117.4359,4122.5641,4135.8974,4123.5897,4120,4124.1026,4078.9744,4156.4103,4108.7179,4165.1282
4156.9231,4120.5128,4118.4615,4118.4615,4129.7436,4121.5385,4116.4103,4125.641,4074.8718,4152.3077,4106.6667,4162.5641
4155.8974,4121.5385,4120,4121.0256,4126.6667,4121.0256,4115.8974,4120.5128,4071.7949,4155.8974,4103.0769,4162.0513
4157.4359,4123.5897,4122.5641,4122.5641,4131.7949,4123.5897,4120,4117.4359,4077.4359,4163.5897,4106.1538,4160
4152.3077,4122.0513,4118.9744,4115.3846,4130.7692,4123.0769,4121.0256,4126.1538,4074.8718,4160.5128,4104.1026,4153.8462
4144.6154,4118.9744,4112.8205,4107.1795,4126.6667,4122.0513,4121.5385,4139.4872,4064.1026,4152.8205,4093.3333,4150.7692
4140,4120,4108.2051,4104.6154,4125.1282,4120.5128,4122.0513,4138.4615,4061.0256,4148.2051,4088.2051,4150.7692
4140,4123.0769,4108.2051,4107.1795,4122.5641,4119.4872,4120.5128,4125.1282,4062.0513,4151.2821,4090.7692,4149.7436
4141.5385,4123.0769,4110.7692,4107.1795,4122.0513,4118.9744,4118.9744,4124.1026,4060,4155.3846,4091.2821,4150.2564
4136.4103,4121.0256,4108.7179,4100,4123.0769,4121.0256,4120,4137.4359,4060,4150.2564,4088.7179,4148.7179
4126.1538,4122.5641,4104.6154,4093.3333,4121.0256,4122.0513,4122.5641,4134.8718,4060.5128,4144.1026,4082.0513,4142.0513
4123.5897,4124.1026,4100.5128,4090.7692,4122.0513,4121.5385,4124.6154,4124.6154,4058.4615,4142.0513,4076.9231,4136.4103
4125.641,4123.5897,4102.5641,4092.3077,4123.5897,4121.5385,4125.641,4131.2821,4056.4103,4140,4076.4103,4134.8718
4123.5897,4122.0513,4107.1795,4092.3077,4121.0256,4120.5128,4127.6923,4140.5128,4056.9231,4137.4359,4072.8205,4134.359
4119.4872,4120.5128,4102.0513,4089.7436,4118.9744,4120,4127.1795,4135.8974,4056.4103,4139.4872,4068.2051,4129.2308
4117.4359,4119.4872,4095.8974,4089.7436,4119.4872,4121.5385,4128.7179,4133.3333,4055.3846,4144.1026,4065.1282,4126.6667
4114.359,4121.0256,4095.3846,4089.7436,4122.0513,4121.5385,4135.8974,4137.4359,4052.3077,4140.5128,4060.5128,4124.1026
4107.1795,4121.0256,4092.8205,4083.5897,4123.0769,4118.4615,4136.9231,4136.4103,4046.6667,4131.7949,4054.359,4117.9487
4106.6667,4121.0256,4094.359,4083.0769,4122.0513,4118.4615,4127.6923,4135.3846,4046.6667,4131.2821,4050.7692,4114.8718
4109.7436,4122.5641,4097.9487,4089.2308,4124.6154,4121.5385,4124.1026,4136.4103,4047.1795,4136.4103,4051.7949,4116.9231
4110.7692,4124.1026,4098.9744,4093.3333,4127.6923,4123.5897,4130.7692,4137.4359,4048.2051,4140.5128,4062.0513,4123.5897
4114.8718,4124.6154,4103.0769,4093.3333,4125.1282,4125.641,4134.8718,4138.9744,4055.3846,4141.0256,4074.359,4130.7692
4120.5128,4125.641,4105.1282,4093.3333,4128.2051,4127.6923,4135.3846,4137.9487,4061.5385,4140.5128,4076.9231,4130.7692
4122.0513,4124.1026,4103.5897,4100,4132.8205,4128.7179,4132.3077,4135.8974,4061.0256,4147.1795,4075.3846,4130.2564
4121.5385,4122.0513,4103.5897,4106.6667,4129.7436,4128.7179,4127.6923,4134.359,4057.9487,4149.2308,4074.8718,4131.7949
4122.5641,4124.1026,4104.6154,4099.4872,4124.1026,4126.6667,4128.7179,4134.359,4057.4359,4142.5641,4075.8974,4131.2821
4121.5385,4126.1538,4103.5897,4095.3846,4125.1282,4126.1538,4133.3333,4135.8974,4060.5128,4143.0769,4076.4103,4132.3077
4122.5641,4124.6154,4107.1795,4102.5641,4131.2821,4127.6923,4136.4103,4137.4359,4060,4150.2564,4068.7179,4136.9231
4126.6667,4123.5897,4109.2308,4103.0769,4133.3333,4128.7179,4135.8974,4140,4054.359,4151.7949,4060,4139.4872
4128.2051,4124.6154,4105.641,4102.5641,4133.8462,4132.3077,4136.9231,4147.6923,4053.3333,4148.2051,4058.9744,4136.9231
4125.641,4124.6154,4105.641,4104.1026,4136.4103,4138.9744,4138.4615,4150.7692,4053.8462,4146.6667,4055.8974,4134.359
4117.4359,4122.0513,4104.6154,4094.359,4137.9487,4136.4103,4138.4615,4143.0769,4046.6667,4142.0513,4049.7436,4126.1538
4107.1795,4121.0256,4096.4103,4085.641,4136.9231,4127.6923,4136.9231,4136.9231,4040,4133.8462,4048.2051,4119.4872
4105.641,4122.5641,4091.7949,4090.2564,4134.8718,4130.2564,4135.8974,4136.9231,4042.0513,4132.3077,4050.7692,4122.5641
4109.7436,4123.0769,4092.8205,4092.3077,4135.3846,4137.4359,4136.9231,4137.4359,4043.5897,4133.3333,4049.7436,4122.0513
4107.1795,4123.0769,4093.8462,4088.7179,4136.4103,4137.9487,4140.5128,4138.9744,4042.5641,4133.3333,4049.7436,4117.4359
4111.7949,4125.641,4100.5128,4094.359,4139.4872,4139.4872,4145.1282,4143.0769,4048.2051,4138.9744,4056.9231,4123.5897
4121.5385,4125.641,4107.1795,4098.9744,4138.4615,4142.5641,4142.0513,4145.1282,4049.7436,4143.5897,4058.4615,4130.2564
4118.4615,4124.6154,4105.641,4093.3333,4134.8718,4135.3846,4133.3333,4143.5897,4042.0513,4141.0256,4052.8205,4127.6923
4113.8462,4124.6154,4103.5897,4089.2308,4137.4359,4132.8205,4133.8462,4145.1282,4038.4615,4140.5128,4054.8718,4125.641
4120,4126.1538,4107.6923,4096.4103,4136.9231,4137.4359,4137.9487,4146.1538,4042.0513,4144.1026,4062.0513,4126.6667
4124.6154,4126.1538,4108.2051,4101.0256,4129.2308,4133.8462,4131.7949,4141.5385,4043.0769,4140,4062.5641,4129.2308
4119.4872,4124.6154,4098.4615,4094.8718,4123.0769,4125.641,4123.0769,4136.4103,4040.5128,4133.8462,4059.4872,4128.7179
4120,4123.5897,4094.8718,4092.3077,4125.1282,4127.1795,4126.1538,4135.8974,4042.5641,4140,4060.5128,4126.6667
4125.641,4123.0769,4102.5641,4097.9487,4129.7436,4135.8974,4133.8462,4136.4103,4047.6923,4148.7179,4067.6923,4130.7692
4124.1026,4123.5897,4106.1538,4100.5128,4128.7179,4136.4103,4135.8974,4138.4615,4049.2308,4149.7436,4071.7949,4135.3846
4120.5128,4124.6154,4096.4103,4093.8462,4124.1026,4132.3077,4135.8974,4140.5128,4044.1026,4140.5128,4063.5897,4128.2051
4115.8974,4121.5385,4090.7692,4089.7436,4121.5385,4126.6667,4135.3846,4138.9744,4034.8718,4133.3333,4054.359,4117.9487
4114.8718,4123.5897,4101.0256,4101.0256,4127.6923,4126.6667,4131.7949,4138.4615,4036.9231,4138.9744,4057.4359,4122.0513
4117.4359,4126.6667,4106.1538,4105.1282,4135.8974,4132.8205,4128.2051,4139.4872,4042.0513,4141.0256,4064.1026,4126.1538
4121.5385,4124.6154,4102.5641,4095.3846,4136.9231,4131.7949,4127.1795,4137.9487,4037.9487,4135.3846,4066.6667,4123.0769
4123.5897,4127.6923,4103.0769,4097.4359,4134.8718,4131.2821,4128.7179,4140.5128,4036.4103,4140,4073.8462,4128.2051
4121.5385,4132.8205,4107.6923,4106.1538,4135.8974,4133.3333,4127.6923,4144.6154,4041.5385,4146.6667,4077.4359,4131.2821
4118.9744,4128.2051,4107.1795,4098.9744,4135.8974,4130.2564,4124.1026,4138.9744,4041.5385,4144.1026,4074.359,4126.6667
4120.5128,4122.5641,4104.6154,4093.3333,4133.8462,4128.2051,4123.0769,4135.8974,4041.0256,4141.0256,4081.5385,4127.6923
4123.0769,4124.1026,4107.1795,4103.0769,4135.8974,4135.8974,4127.1795,4140,4041.5385,4140.5128,4090.2564,4132.3077
4118.4615,4124.1026,4106.6667,4107.6923,4138.4615,4138.4615,4127.6923,4132.8205,4035.8974,4134.8718,4084.6154,4127.1795
4114.8718,4124.1026,4103.5897,4104.1026,4136.4103,4131.2821,4125.1282,4124.6154,4030.2564,4130.7692,4077.4359,4119.4872
4121.0256,4125.1282,4107.6923,4106.6667,4135.8974,4131.2821,4131.2821,4133.8462,4037.4359,4138.4615,4086.6667,4125.1282
4127.1795,4123.5897,4112.3077,4109.2308,4137.9487,4134.8718,4135.3846,4145.641,4045.641,4142.5641,4101.5385,4136.9231
4124.6154,4125.641,4106.6667,4108.2051,4137.9487,4135.8974,4132.8205,4144.6154,4042.0513,4137.4359,4100.5128,4133.3333
4125.1282,4126.1538,4108.2051,4107.6923,4137.9487,4136.9231,4134.359,4138.9744,4038.4615,4139.4872,4093.3333,4128.7179
4130.2564,4123.5897,4120,4108.7179,4140,4136.4103,4137.9487,4135.8974,4038.9744,4147.6923,4096.9231,4131.2821
4128.2051,4122.5641,4117.9487,4108.2051,4138.4615,4136.9231,4135.8974,4136.9231,4034.8718,4147.6923,4104.6154,4129.2308
4122.5641,4122.5641,4110.2564,4108.2051,4136.4103,4135.8974,4134.359,4144.6154,4032.3077,4144.6154,4104.6154,4127.6923
4125.1282,4122.0513,4115.3846,4107.6923,4136.4103,4137.4359,4138.9744,4152.3077,4037.4359,4150.2564,4104.1026,4133.8462
4129.2308,4122.0513,4125.641,4108.2051,4136.9231,4137.4359,4141.5385,4152.8205,4041.0256,4158.9744,4109.2308,4137.4359
4123.5897,4121.5385,4120.5128,4105.641,4136.4103,4131.2821,4136.9231,4144.1026,4031.7949,4152.8205,4108.7179,4131.7949
4120.5128,4122.0513,4110.7692,4101.0256,4136.9231,4124.1026,4131.7949,4134.359,4022.5641,4141.0256,4103.0769,4128.2051
4124.6154,4122.0513,4114.359,4102.5641,4134.8718,4126.6667,4135.8974,4141.0256,4030.2564,4146.1538,4103.0769,4132.3077
4126.1538,4121.5385,4123.0769,4108.2051,4133.8462,4132.3077,4140.5128,4156.4103,4037.9487,4153.8462,4110.7692,4136.4103
4119.4872,4121.5385,4120,4103.0769,4133.8462,4128.2051,4136.4103,4153.3333,4028.2051,4147.1795,4111.2821,4132.3077
4113.3333,4121.0256,4110.2564,4095.8974,4135.3846,4125.1282,4134.359,4137.9487,4020.5128,4138.4615,4104.1026,4122.5641
4115.8974,4120.5128,4109.7436,4100.5128,4137.4359,4132.3077,4136.4103,4135.8974,4025.641,4142.5641,4112.8205,4122.5641
4124.1026,4122.0513,4117.4359,4108.2051,4136.9231,4139.4872,4138.9744,4141.0256,4029.7436,4151.2821,4126.1538,4129.7436
4123.5897,4123.5897,4120.5128,4108.2051,4137.4359,4133.8462,4137.4359,4138.9744,4027.1795,4151.2821,4125.641,4131.2821
4115.8974,4123.5897,4112.3077,4106.6667,4134.359,4124.6154,4130.7692,4135.8974,4025.1282,4144.1026,4122.5641,4126.6667
4114.359,4122.0513,4104.1026,4107.1795,4127.1795,4124.1026,4126.1538,4135.3846,4021.0256,4136.9231,4124.1026,4121.0256
4113.8462,4120,4105.1282,4105.1282,4127.1795,4124.6154,4125.641,4134.359,4015.3846,4133.3333,4120.5128,4117.4359
4115.3846,4122.0513,4107.1795,4106.1538,4131.7949,4121.0256,4129.2308,4134.359,4017.4359,4134.359,4122.0513,4116.4103
4120.5128,4123.0769,4107.1795,4108.7179,4129.2308,4120.5128,4134.8718,4137.4359,4021.5385,4137.9487,4129.7436,4119.4872
4118.9744,4121.5385,4109.7436,4105.1282,4123.0769,4123.0769,4136.4103,4141.0256,4022.5641,4141.0256,4128.7179,4124.6154
4112.3077,4121.0256,4107.6923,4100.5128,4123.5897,4123.5897,4134.359,4140.5128,4020.5128,4138.4615,4127.6923,4122.5641
4115.8974,4122.5641,4104.6154,4105.1282,4129.2308,4123.5897,4134.359,4138.9744,4017.9487,4136.4103,4133.8462,4120
4124.6154,4124.1026,4112.8205,4112.3077,4133.3333,4124.6154,4136.4103,4140.5128,4022.5641,4141.5385,4140,4128.2051
4123.0769,4125.1282,4117.4359,4112.3077,4134.8718,4128.2051,4136.4103,4139.4872,4027.1795,4144.6154,4140,4132.3077
4120,4123.0769,4111.7949,4107.6923,4132.8205,4130.7692,4135.3846,4136.4103,4023.5897,4143.0769,4138.4615,4126.1538
4120,4122.5641,4108.2051,4106.6667,4133.3333,4129.2308,4137.9487,4137.9487,4021.5385,4143.5897,4143.0769,4120.5128
4122.0513,4124.1026,4109.7436,4107.6923,4138.4615,4127.1795,4136.9231,4140,4026.1538,4143.0769,4152.8205,4122.5641
4125.641,4125.1282,4111.2821,4108.2051,4136.4103,4126.1538,4127.1795,4139.4872,4029.7436,4145.1282,4159.4872,4131.2821
4124.6154,4124.6154,4110.7692,4107.1795,4127.1795,4124.1026,4120.5128,4138.9744,4027.1795,4146.1538,4154.359,4133.3333
4124.1026,4124.6154,4109.2308,4107.1795,4124.1026,4124.6154,4124.6154,4137.4359,4023.5897,4142.5641,4150.7692,4126.6667
4123.5897,4124.6154,4109.2308,4105.641,4129.2308,4127.6923,4129.2308,4137.9487,4019.4872,4142.0513,4154.359,4126.6667
4121.5385,4123.5897,4111.2821,4106.6667,4129.2308,4128.2051,4128.2051,4135.3846,4017.4359,4143.0769,4151.2821,4128.7179
4122.0513,4125.641,4108.2051,4107.6923,4125.1282,4125.1282,4124.6154,4130.7692,4021.0256,4142.5641,4145.641,4125.641
4120.5128,4127.1795,4108.7179,4104.6154,4123.0769,4124.1026,4123.0769,4132.3077,4021.5385,4138.9744,4147.1795,4123.0769
4120.5128,4126.1538,4118.9744,4107.1795,4128.7179,4131.2821,4129.7436,4140,4022.5641,4144.1026,4152.8205,4127.6923
4132.3077,4124.1026,4127.1795,4120,4135.3846,4140,4138.4615,4143.0769,4028.2051,4154.359,4156.4103,4136.4103
4135.8974,4123.0769,4122.5641,4122.0513,4133.8462,4137.4359,4137.9487,4140,4027.1795,4152.3077,4157.4359,4136.4103
4124.6154,4124.1026,4111.7949,4109.7436,4129.7436,4132.8205,4130.2564,4137.4359,4022.5641,4144.1026,4157.9487,4130.2564
4121.0256,4124.6154,4110.7692,4109.2308,4129.2308,4132.3077,4126.1538,4136.9231,4025.1282,4145.1282,4158.9744,4129.7436
4125.1282,4124.6154,4122.0513,4118.9744,4128.7179,4128.2051,4125.641,4138.9744,4027.6923,4155.3846,4159.4872,4135.3846
4130.7692,4123.5897,4126.1538,4121.0256,4126.6667,4123.5897,4123.0769,4135.3846,4023.5897,4156.4103,4157.9487,4135.3846
4132.8205,4123.5897,4120,4118.9744,4124.6154,4125.641,4120,4127.6923,4020,4148.2051,4157.9487,4133.8462
4130.7692,4125.641,4122.5641,4117.4359,4124.6154,4128.2051,4121.0256,4125.1282,4024.1026,4150.2564,4160,4138.4615
4127.1795,4124.6154,4123.0769,4111.7949,4127.1795,4127.1795,4122.5641,4123.0769,4023.5897,4152.8205,4157.4359,4135.8974
4126.1538,4123.5897,4111.2821,4108.2051,4128.7179,4127.1795,4121.5385,4121.5385,4019.4872,4146.1538,4155.3846,4127.6923
4123.0769,4125.641,4105.641,4108.7179,4124.6154,4128.7179,4123.5897,4123.5897,4019.4872,4138.9744,4157.9487,4124.1026
4119.4872,4125.641,4108.2051,4105.641,4125.1282,4127.6923,4125.1282,4125.1282,4017.9487,4135.3846,4157.4359,4123.5897
4122.0513,4124.1026,4108.7179,4106.1538,4129.7436,4122.5641,4122.5641,4121.0256,4016.9231,4135.8974,4153.8462,4123.5897
4121.0256,4124.6154,4112.8205,4113.3333,4130.7692,4123.5897,4122.0513,4121.0256,4020.5128,4136.4103,4158.4615,4127.1795
4123.0769,4126.1538,4121.0256,4118.4615,4132.3077,4132.8205,4124.6154,4123.5897,4023.0769,4139.4872,4167.6923,4131.7949
4128.2051,4124.1026,4125.1282,4117.4359,4133.8462,4134.359,4128.2051,4125.1282,4024.6154,4145.1282,4171.7949,4133.3333
4124.6154,4121.5385,4117.9487,4109.7436,4131.7949,4128.2051,4129.2308,4126.6667,4030.2564,4142.5641,4169.7436,4127.6923
4120.5128,4125.1282,4109.2308,4106.1538,4131.7949,4126.1538,4125.1282,4125.641,4028.7179,4130.7692,4167.6923,4121.0256
4123.0769,4128.7179,4113.3333,4113.8462,4137.9487,4128.2051,4123.5897,4122.5641,4021.0256,4128.7179,4169.2308,4120
4123.5897,4124.6154,4115.3846,4117.4359,4140.5128,4124.6154,4124.1026,4120.5128,4024.1026,4134.8718,4169.7436,4121.5385
4125.641,4126.6667,4112.8205,4114.8718,4135.8974,4121.5385,4124.1026,4118.4615,4032.8205,4136.4103,4168.7179,4124.1026
4133.8462,4132.3077,4116.9231,4119.4872,4135.3846,4128.2051,4129.7436,4120,4037.4359,4136.9231,4171.2821,4127.6923
4133.3333,4131.2821,4116.4103,4124.1026,4136.4103,4133.3333,4132.8205,4125.641,4040.5128,4136.4103,4175.3846,4129.7436
4128.2051,4132.3077,4106.1538,4118.4615,4133.3333,4128.2051,4125.641,4123.5897,4036.4103,4132.3077,4177.9487,4122.5641
4130.2564,4132.8205,4104.1026,4118.4615,4132.8205,4125.1282,4122.5641,4117.4359,4026.6667,4128.7179,4181.0256,4119.4872
4134.359,4128.7179,4112.3077,4125.641,4137.4359,4131.7949,4125.641,4122.0513,4030.7692,4130.7692,4185.641,4127.6923
4133.3333,4126.1538,4113.3333,4125.1282,4140.5128,4134.359,4126.1538,4124.1026,4039.4872,4132.8205,4185.1282,4128.2051
4135.3846,4129.2308,4114.8718,4123.5897,4137.9487,4133.8462,4131.7949,4123.0769,4036.9231,4138.9744,4185.1282,4124.6154
4137.9487,4130.2564,4114.359,4123.5897,4134.359,4134.359,4137.4359,4131.7949,4032.3077,4143.0769,4188.2051,4130.7692
4132.8205,4128.7179,4110.2564,4121.0256,4135.3846,4130.7692,4129.2308,4136.4103,4030.7692,4136.9231,4183.0769,4132.3077
4125.641,4124.6154,4108.2051,4118.9744,4135.8974,4127.1795,4124.1026,4127.6923,4025.641,4132.8205,4171.7949,4121.5385
4121.0256,4122.5641,4104.6154,4117.9487,4130.7692,4124.6154,4125.1282,4121.5385,4017.4359,4133.3333,4165.1282,4114.8718
4122.5641,4124.6154,4103.0769,4118.4615,4128.7179,4122.0513,4123.5897,4122.5641,4018.9744,4132.3077,4166.6667,4118.4615
4124.1026,4123.0769,4105.1282,4120.5128,4134.359,4124.1026,4127.6923,4123.0769,4024.1026,4131.2821,4169.7436,4121.5385
4121.5385,4123.0769,4108.2051,4121.0256,4137.4359,4126.1538,4132.8205,4122.5641,4025.1282,4135.3846,4169.7436,4122.5641
4126.1538,4124.6154,4109.7436,4120,4134.359,4123.0769,4128.7179,4122.5641,4029.7436,4141.5385,4171.2821,4127.6923
4133.3333,4124.6154,4108.7179,4121.0256,4134.359,4125.641,4125.641,4121.5385,4033.3333,4138.4615,4176.9231,4129.2308
4131.2821,4125.641,4110.7692,4123.5897,4140,4129.7436,4127.6923,4122.0513,4029.2308,4133.8462,4181.0256,4125.641
4128.2051,4124.6154,4116.9231,4123.5897,4137.4359,4128.2051,4129.2308,4126.1538,4026.1538,4141.5385,4181.0256,4127.6923
4134.8718,4123.0769,4120.5128,4123.0769,4129.7436,4125.1282,4125.1282,4126.1538,4029.7436,4147.1795,4180.5128,4130.7692
4139.4872,4126.1538,4123.0769,4124.1026,4130.7692,4126.6667,4125.1282,4125.1282,4037.4359,4148.2051,4187.1795,4133.8462
4137.9487,4129.2308,4128.7179,4125.1282,4134.8718,4128.2051,4132.3077,4132.3077,4040.5128,4151.7949,4195.3846,4137.4359
4138.4615,4128.7179,4129.2308,4125.1282,4131.2821,4124.6154,4135.8974,4136.4103,4039.4872,4155.8974,4195.3846,4140.5128
4140.5128,4127.1795,4128.2051,4125.641,4127.6923,4124.1026,4127.1795,4128.7179,4042.5641,4155.8974,4194.359,4140
4139.4872,4126.6667,4131.2821,4128.2051,4129.7436,4126.6667,4123.0769,4124.6154,4040.5128,4152.8205,4194.8718,4138.4615
4138.9744,4125.1282,4128.7179,4128.2051,4128.7179,4124.6154,4127.1795,4125.641,4032.3077,4150.2564,4193.8462,4135.8974
4133.3333,4123.5897,4121.5385,4123.5897,4123.5897,4120.5128,4126.1538,4122.5641,4025.1282,4144.1026,4186.1538,4127.1795
4126.6667,4122.5641,4121.5385,4119.4872,4121.0256,4122.5641,4125.641,4122.0513,4022.5641,4138.9744,4182.0513,4121.0256
4129.7436,4124.1026,4123.0769,4121.5385,4124.1026,4125.1282,4128.7179,4125.1282,4028.2051,4145.641,4192.3077,4128.7179
4134.359,4127.6923,4122.5641,4125.641,4127.6923,4123.5897,4129.7436,4125.1282,4033.3333,4151.7949,4201.5385,4136.4103
4131.2821,4127.1795,4124.6154,4125.641,4124.1026,4122.5641,4129.2308,4122.0513,4028.7179,4146.1538,4197.4359,4132.3077
4127.6923,4123.0769,4123.5897,4122.5641,4121.0256,4121.0256,4126.1538,4120,4022.0513,4135.8974,4189.2308,4124.6154
4123.0769,4122.5641,4116.9231,4120,4122.5641,4121.5385,4124.1026,4121.0256,4017.9487,4137.9487,4185.641,4121.0256
4122.5641,4128.2051,4115.8974,4121.0256,4126.1538,4123.0769,4125.641,4123.0769,4017.4359,4141.5385,4185.641,4122.0513
4129.2308,4128.7179,4120.5128,4123.5897,4125.641,4122.5641,4128.7179,4122.5641,4020,4136.9231,4192.8205,4127.6923
4135.8974,4124.6154,4126.1538,4128.2051,4125.641,4124.1026,4129.7436,4124.6154,4024.1026,4139.4872,4198.9744,4131.7949
4132.8205,4124.6154,4124.6154,4125.1282,4125.1282,4124.1026,4126.6667,4125.1282,4024.6154,4143.0769,4194.8718,4126.6667
4126.1538,4126.6667,4118.9744,4120.5128,4123.0769,4122.5641,4126.1538,4120.5128,4022.5641,4139.4872,4190.7692,4122.0513
4127.6923,4124.6154,4121.0256,4127.6923,4125.1282,4129.2308,4132.8205,4119.4872,4022.5641,4137.4359,4194.359,4124.6154
4129.2308,4122.5641,4123.0769,4134.8718,4128.2051,4137.4359,4136.9231,4122.0513,4023.0769,4136.4103,4196.9231,4123.5897
4125.641,4123.5897,4117.9487,4127.1795,4127.1795,4133.8462,4133.8462,4121.5385,4023.5897,4136.4103,4197.4359,4123.0769
4122.5641,4123.5897,4115.8974,4120,4124.6154,4130.2564,4134.8718,4123.0769,4024.1026,4136.9231,4196.9231,4124.1026
4120,4124.1026,4119.4872,4122.0513,4127.1795,4133.8462,4138.4615,4125.641,4021.5385,4133.8462,4191.2821,4116.9231
4123.5897,4128.7179,4121.5385,4124.6154,4128.7179,4138.4615,4139.4872,4128.2051,4022.0513,4136.4103,4193.3333,4119.4872
4135.8974,4129.2308,4124.1026,4125.641,4128.2051,4137.4359,4139.4872,4128.7179,4028.2051,4142.5641,4201.5385,4133.3333
4139.4872,4124.6154,4126.1538,4124.1026,4127.1795,4131.2821,4134.8718,4126.1538,4030.2564,4135.8974,4204.6154,4132.8205
4126.6667,4122.5641,4122.0513,4121.5385,4125.1282,4125.1282,4128.7179,4122.5641,4025.1282,4129.2308,4199.4872,4121.5385
4120.5128,4124.6154,4120,4120.5128,4123.5897,4122.5641,4124.6154,4121.5385,4026.1538,4131.7949,4199.4872,4122.5641
4126.1538,4124.6154,4122.5641,4116.4103,4121.5385,4123.5897,4123.0769,4121.5385,4028.7179,4133.8462,4202.5641,4126.1538
4125.1282,4126.1538,4122.0513,4117.4359,4125.641,4126.6667,4123.0769,4123.0769,4024.1026,4133.3333,4200,4121.5385
4123.0769,4128.2051,4125.1282,4124.6154,4133.8462,4125.641,4124.1026,4123.5897,4024.1026,4135.3846,4199.4872,4121.5385
4129.2308,4127.1795,4128.7179,4126.1538,4131.7949,4120.5128,4123.5897,4120,4027.6923,4137.9487,4200,4125.1282
4131.7949,4125.1282,4124.6154,4122.5641,4127.6923,4120,4122.0513,4118.4615,4025.641,4136.9231,4197.9487,4121.0256
4127.6923,4126.6667,4123.5897,4124.1026,4134.359,4122.0513,4125.1282,4121.5385,4024.1026,4138.9744,4197.9487,4116.9231
4123.0769,4124.1026,4118.4615,4124.6154,4136.4103,4122.0513,4126.1538,4121.5385,4025.641,4134.8718,4200.5128,4117.4359
4121.5385,4122.5641,4109.2308,4121.0256,4128.2051,4122.0513,4123.5897,4122.0513,4025.641,4126.6667,4201.5385,4114.8718
4121.5385,4123.0769,4112.8205,4120.5128,4125.641,4120.5128,4121.0256,4124.6154,4026.6667,4126.6667,4199.4872,4113.3333
4121.0256,4122.5641,4122.0513,4123.5897,4127.1795,4120,4121.5385,4130.7692,4029.7436,4130.7692,4198.4615,4117.4359
4128.2051,4129.2308,4125.1282,4127.1795,4128.2051,4124.1026,4127.6923,4135.3846,4035.3846,4134.8718,4204.1026,4126.1538
4134.359,4132.8205,4128.2051,4125.641,4135.3846,4126.1538,4134.8718,4134.8718,4036.9231,4137.4359,4208.2051,4130.2564
4131.2821,4125.1282,4129.2308,4122.5641,4138.9744,4124.1026,4136.9231,4134.8718,4034.359,4140,4204.6154,4126.6667
4130.7692,4126.6667,4129.7436,4125.641,4136.9231,4125.1282,4135.3846,4137.9487,4034.359,4141.5385,4208.2051,4126.1538
4133.8462,4133.8462,4132.3077,4129.2308,4138.4615,4126.6667,4135.3846,4137.9487,4035.8974,4139.4872,4215.8974,4128.7179
4129.2308,4128.2051,4129.2308,4126.1538,4140,4125.641,4135.8974,4136.4103,4035.3846,4140,4212.3077,4129.2308
4120,4120.5128,4122.0513,4121.5385,4140,4124.6154,4136.4103,4138.9744,4032.8205,4137.4359,4203.5897,4121.5385
4124.6154,4127.1795,4128.2051,4121.5385,4138.9744,4127.6923,4137.9487,4147.1795,4036.9231,4135.8974,4205.641,4118.9744
4140,4137.4359,4138.9744,4131.2821,4138.9744,4135.8974,4137.9487,4155.3846,4050.2564,4147.6923,4220,4134.359
4143.5897,4135.8974,4140.5128,4137.4359,4141.0256,4136.4103,4138.4615,4152.3077,4054.8718,4154.8718,4228.2051,4142.5641
4137.9487,4126.1538,4138.4615,4129.2308,4138.4615,4127.1795,4136.4103,4140,4047.1795,4146.6667,4219.4872,4133.8462
4135.8974,4122.5641,4136.4103,4122.5641,4134.359,4124.6154,4134.359,4135.3846,4043.5897,4142.5641,4211.7949,4127.1795
4134.8718,4128.2051,4131.7949,4124.6154,4135.3846,4128.2051,4134.8718,4137.9487,4040.5128,4140,4213.8462,4125.641
4126.1538,4128.2051,4124.6154,4122.5641,4136.9231,4126.6667,4136.9231,4132.8205,4027.6923,4130.7692,4207.6923,4120.5128
4126.1538,4124.1026,4120,4118.9744,4134.8718,4123.5897,4137.4359,4126.1538,4021.5385,4125.641,4197.9487,4117.4359
4136.4103,4128.7179,4125.641,4122.5641,4134.359,4124.1026,4130.7692,4125.641,4032.3077,4131.7949,4201.5385,4123.0769
4139.4872,4131.7949,4135.3846,4126.1538,4138.9744,4129.7436,4128.7179,4124.1026,4042.0513,4137.4359,4211.2821,4133.3333
4137.9487,4127.6923,4135.3846,4127.6923,4142.0513,4134.8718,4134.359,4121.0256,4044.1026,4139.4872,4214.8718,4137.9487
4137.9487,4128.2051,4125.641,4125.1282,4138.9744,4134.359,4136.9231,4126.1538,4046.1538,4140,4210.7692,4133.8462
4132.8205,4131.7949,4118.9744,4123.0769,4137.9487,4133.3333,4135.8974,4135.8974,4043.5897,4134.359,4201.5385,4126.1538
4127.1795,4131.2821,4121.0256,4125.1282,4141.0256,4137.4359,4139.4872,4136.4103,4040,4128.7179,4200,4126.1538
4128.7179,4127.1795,4122.5641,4125.1282,4138.9744,4133.3333,4139.4872,4128.7179,4042.5641,4126.6667,4203.5897,4125.641
4124.6154,4125.641,4118.9744,4122.5641,4134.359,4123.5897,4129.2308,4129.2308,4041.0256,4123.5897,4199.4872,4118.4615
4119.4872,4128.2051,4115.8974,4121.5385,4134.359,4121.5385,4124.1026,4135.3846,4033.8462,4124.1026,4193.8462,4114.8718
4126.6667,4131.7949,4120,4123.5897,4138.4615,4126.6667,4130.7692,4136.4103,4035.8974,4128.2051,4202.0513,4121.0256
4133.3333,4131.2821,4126.1538,4125.641,4140.5128,4131.7949,4137.9487,4135.8974,4044.1026,4131.2821,4210.2564,4127.1795
4128.2051,4125.1282,4123.0769,4125.641,4138.9744,4133.8462,4137.4359,4136.9231,4044.6154,4131.2821,4206.6667,4124.6154
4123.0769,4124.1026,4119.4872,4123.0769,4140,4135.3846,4136.4103,4136.9231,4040.5128,4132.8205,4205.1282,4122.5641
4132.3077,4127.1795,4125.1282,4124.1026,4141.0256,4135.3846,4138.9744,4137.4359,4044.6154,4137.4359,4212.3077,4127.1795
4138.9744,4126.1538,4128.7179,4126.1538,4138.9744,4129.7436,4139.4872,4138.9744,4046.6667,4138.4615,4210.7692,4127.6923
4128.2051,4125.641,4122.5641,4120.5128,4137.4359,4123.5897,4137.9487,4135.3846,4038.9744,4133.8462,4195.8974,4120.5128
4119.4872,4126.6667,4118.9744,4116.4103,4137.4359,4126.6667,4141.0256,4130.7692,4036.4103,4134.8718,4193.8462,4118.4615
4121.5385,4125.641,4123.5897,4117.9487,4135.3846,4128.2051,4142.0513,4132.3077,4038.9744,4135.8974,4198.9744,4123.0769
4125.641,4125.1282,4125.641,4117.9487,4136.4103,4123.0769,4138.4615,4136.4103,4041.5385,4134.8718,4192.8205,4125.641
4125.641,4133.8462,4123.5897,4118.4615,4140.5128,4130.2564,4144.6154,4138.4615,4049.2308,4135.8974,4191.7949,4125.641
4125.641,4140.5128,4123.0769,4121.5385,4141.0256,4138.4615,4150.7692,4140.5128,4054.359,4134.359,4196.9231,4127.1795
4122.0513,4130.7692,4123.0769,4122.5641,4137.4359,4131.2821,4143.0769,4138.4615,4048.7179,4130.7692,4190.7692,4124.6154
4119.4872,4121.5385,4120.5128,4120,4135.3846,4126.6667,4140.5128,4133.3333,4043.0769,4128.7179,4182.5641,4118.4615
4121.5385,4130.2564,4119.4872,4120,4138.4615,4136.4103,4151.7949,4136.4103,4050.2564,4129.7436,4192.3077,4121.0256
4122.5641,4133.8462,4121.5385,4121.5385,4139.4872,4140,4152.8205,4142.0513,4058.4615,4129.7436,4201.5385,4126.1538
4123.5897,4126.1538,4118.9744,4122.0513,4137.4359,4129.7436,4142.0513,4138.9744,4057.4359,4130.2564,4198.9744,4126.1538
4124.6154,4127.6923,4116.9231,4121.0256,4133.8462,4123.5897,4140,4135.8974,4055.8974,4133.3333,4199.4872,4125.1282
4120.5128,4130.2564,4114.359,4118.4615,4132.3077,4125.1282,4140.5128,4137.4359,4054.8718,4128.2051,4194.359,4120.5128
4121.0256,4128.2051,4111.2821,4120.5128,4134.359,4126.1538,4139.4872,4136.4103,4053.8462,4123.5897,4187.6923,4119.4872
