"AF3","F7","F3","FC5","T7","P7","O1","O2","FC6","F4","F8","AF4"
4132.8205,4165.641,4147.1795,4138.9744,4152.8205,4135.3846,4143.5897,4149.7436,4171.2821,4151.7949,4146.1538,4120
4128.7179,4166.6667,4151.2821,4144.1026,4116.4103,4131.7949,4141.5385,4153.3333,4168.7179,4152.8205,4152.3077,4120.5128
4127.6923,4164.6154,4147.6923,4133.3333,4111.7949,4132.8205,4140,4148.7179,4169.7436,4152.3077,4147.6923,4123.5897
4127.6923,4166.1538,4145.1282,4120.5128,4141.5385,4132.3077,4134.359,4140,4168.2051,4144.1026,4144.1026,4123.5897
4140.5128,4172.8205,4147.1795,4119.4872,4140.5128,4126.6667,4129.2308,4137.4359,4165.641,4143.0769,4148.7179,4123.0769
4139.4872,4168.7179,4143.0769,4124.1026,4133.8462,4123.0769,4126.6667,4130.7692,4160,4145.641,4143.0769,4117.4359
4126.6667,4161.0256,4138.9744,4127.1795,4156.4103,4124.1026,4119.4872,4121.0256,4154.8718,4142.5641,4132.8205,4113.8462
4131.2821,4169.2308,4140.5128,4131.7949,4158.9744,4120,4115.3846,4122.5641,4160,4141.5385,4138.9744,4127.1795
4127.6923,4172.3077,4136.9231,4138.4615,4136.9231,4111.2821,4117.4359,4120.5128,4159.4872,4140.5128,4138.4615,4130.7692
4124.1026,4163.5897,4134.359,4140.5128,4144.6154,4122.0513,4125.1282,4125.1282,4156.4103,4136.9231,4136.9231,4122.0513
4133.3333,4156.9231,4135.3846,4129.2308,4150.7692,4131.2821,4130.7692,4137.9487,4154.8718,4131.7949,4138.4615,4118.9744
4132.8205,4157.9487,4130.7692,4114.8718,4133.8462,4120.5128,4127.6923,4134.8718,4148.7179,4129.7436,4136.9231,4118.9744
4129.7436,4165.1282,4130.2564,4115.8974,4143.0769,4123.5897,4129.7436,4129.2308,4152.3077,4135.3846,4146.6667,4115.8974
4134.8718,4169.2308,4135.8974,4124.1026,4174.359,4129.7436,4133.3333,4133.8462,4160.5128,4139.4872,4158.4615,4111.7949
4143.5897,4176.9231,4140.5128,4127.6923,4182.5641,4121.0256,4129.2308,4137.9487,4167.6923,4144.1026,4163.0769,4121.0256
4141.0256,4177.4359,4145.641,4126.6667,4164.1026,4117.9487,4125.1282,4136.4103,4176.4103,4147.1795,4168.2051,4136.9231
4135.3846,4165.641,4145.641,4129.7436,4161.5385,4124.6154,4124.1026,4133.3333,4181.0256,4145.641,4168.7179,4138.9744
4141.0256,4164.1026,4136.4103,4130.2564,4168.7179,4120,4118.4615,4128.7179,4176.4103,4141.5385,4163.5897,4132.3077
4132.8205,4158.4615,4127.1795,4117.9487,4154.8718,4109.2308,4113.3333,4122.0513,4161.0256,4131.2821,4146.6667,4118.9744
4116.9231,4145.1282,4126.6667,4118.4615,4158.9744,4114.8718,4119.4872,4126.1538,4158.9744,4130.7692,4132.8205,4112.8205
4124.6154,4147.6923,4130.2564,4130.2564,4178.4615,4125.1282,4122.5641,4136.4103,4168.7179,4137.9487,4143.5897,4122.5641
4137.4359,4156.4103,4131.2821,4132.3077,4161.5385,4125.641,4123.0769,4143.5897,4170.2564,4138.9744,4154.8718,4133.3333
4131.2821,4153.8462,4131.2821,4131.2821,4153.8462,4128.2051,4130.7692,4149.7436,4175.3846,4137.4359,4151.2821,4131.7949
4123.0769,4142.5641,4127.6923,4123.5897,4176.4103,4128.7179,4131.7949,4146.6667,4173.3333,4135.3846,4143.0769,4117.9487
4116.4103,4126.6667,4117.4359,4109.2308,4164.6154,4116.9231,4122.0513,4132.3077,4150.7692,4128.7179,4125.1282,4103.0769
4105.641,4112.3077,4111.2821,4099.4872,4144.1026,4112.3077,4119.4872,4121.0256,4140.5128,4121.0256,4110.2564,4101.5385
4116.9231,4117.9487,4120,4104.6154,4164.6154,4128.2051,4127.6923,4117.9487,4160,4129.7436,4131.7949,4117.4359
4144.6154,4135.8974,4134.359,4117.4359,4177.4359,4140,4130.2564,4118.4615,4181.0256,4147.6923,4167.1795,4143.0769
4147.1795,4129.2308,4134.8718,4116.4103,4142.0513,4131.2821,4125.1282,4115.3846,4178.4615,4146.6667,4166.6667,4149.7436
4134.359,4112.8205,4130.7692,4108.2051,4127.6923,4128.7179,4122.0513,4111.7949,4171.7949,4142.5641,4155.3846,4142.5641
4134.359,4103.5897,4135.8974,4107.6923,4151.7949,4132.8205,4119.4872,4109.2308,4173.8462,4147.1795,4155.3846,4144.1026
4135.8974,4088.7179,4135.8974,4097.4359,4153.3333,4126.1538,4118.9744,4108.7179,4168.2051,4145.641,4138.4615,4141.5385
4135.3846,4090.7692,4128.7179,4091.2821,4133.3333,4130.7692,4125.641,4115.3846,4150.7692,4140.5128,4130.2564,4133.3333
4137.9487,4097.4359,4127.1795,4100,4130.2564,4144.1026,4131.7949,4108.2051,4133.8462,4136.9231,4140,4129.2308
4133.3333,4089.7436,4129.7436,4101.0256,4152.8205,4143.5897,4136.4103,4096.4103,4138.9744,4142.0513,4121.0256,4128.7179
4130.7692,4092.8205,4133.3333,4101.5385,4157.9487,4141.0256,4145.641,4110.7692,4146.6667,4150.7692,4106.1538,4136.4103
4141.0256,4098.9744,4133.3333,4114.359,4129.7436,4144.1026,4146.6667,4118.9744,4135.3846,4150.2564,4131.2821,4139.4872
4150.2564,4092.3077,4129.2308,4114.359,4127.1795,4142.5641,4137.9487,4105.641,4134.8718,4144.1026,4139.4872,4139.4872
4142.5641,4094.359,4129.7436,4103.0769,4153.3333,4142.5641,4140.5128,4101.5385,4137.9487,4144.1026,4120.5128,4139.4872
4141.5385,4108.7179,4137.4359,4101.0256,4163.5897,4148.7179,4150.2564,4115.8974,4132.3077,4152.3077,4139.4872,4143.5897
4148.2051,4107.1795,4137.9487,4093.8462,4161.0256,4149.2308,4149.7436,4121.5385,4139.4872,4153.8462,4159.4872,4147.1795
4135.3846,4086.1538,4128.7179,4078.9744,4158.4615,4136.4103,4141.5385,4104.6154,4146.6667,4143.5897,4141.0256,4135.8974
4130.7692,4081.5385,4127.6923,4080.5128,4153.8462,4130.7692,4142.5641,4102.0513,4146.6667,4145.1282,4135.8974,4137.4359
4135.8974,4086.6667,4132.3077,4080.5128,4152.3077,4137.4359,4146.1538,4112.3077,4140,4152.8205,4129.7436,4148.7179
4132.3077,4086.1538,4132.3077,4070.2564,4157.4359,4139.4872,4144.1026,4103.0769,4131.2821,4149.7436,4130.7692,4148.2051
4138.9744,4095.3846,4130.2564,4067.1795,4158.4615,4136.9231,4137.4359,4095.3846,4132.8205,4148.2051,4175.3846,4149.7436
4146.6667,4096.9231,4132.3077,4069.7436,4154.359,4133.3333,4133.8462,4101.5385,4136.4103,4151.2821,4192.8205,4153.8462
4145.1282,4090.2564,4141.5385,4071.7949,4157.4359,4130.2564,4138.9744,4106.1538,4138.9744,4153.8462,4171.2821,4158.4615
4145.641,4094.8718,4145.641,4061.5385,4157.9487,4127.1795,4138.4615,4103.5897,4141.0256,4150.7692,4168.2051,4167.6923
4145.641,4102.5641,4142.5641,4042.5641,4150.2564,4128.7179,4136.4103,4102.5641,4140,4145.641,4167.6923,4165.1282
4131.7949,4096.9231,4140,4033.8462,4151.7949,4135.3846,4142.5641,4108.2051,4143.5897,4148.2051,4159.4872,4148.2051
4117.9487,4085.641,4137.4359,4037.4359,4156.4103,4133.3333,4145.1282,4106.1538,4145.641,4146.1538,4146.1538,4140
4127.1795,4093.8462,4136.9231,4043.5897,4150.7692,4126.6667,4140,4102.0513,4143.5897,4144.6154,4134.8718,4158.9744
4140.5128,4100.5128,4137.9487,4041.0256,4148.7179,4127.6923,4135.3846,4097.9487,4146.6667,4153.8462,4137.9487,4170.7692
4142.0513,4092.3077,4136.9231,4026.6667,4149.2308,4130.7692,4137.9487,4095.3846,4153.8462,4157.9487,4141.5385,4157.9487
4149.7436,4103.5897,4138.9744,4025.1282,4139.4872,4126.1538,4142.0513,4105.1282,4160,4156.9231,4157.4359,4164.1026
4152.8205,4118.9744,4141.0256,4044.1026,4136.4103,4121.5385,4140,4109.2308,4158.4615,4152.3077,4174.359,4172.3077
4136.4103,4109.2308,4134.359,4046.1538,4148.7179,4128.2051,4139.4872,4107.6923,4151.2821,4146.6667,4160.5128,4147.1795
4125.641,4099.4872,4123.0769,4028.7179,4145.641,4127.1795,4140.5128,4111.2821,4143.0769,4141.5385,4135.8974,4127.1795
4122.0513,4106.1538,4117.9487,4015.3846,4133.3333,4114.359,4133.8462,4110.2564,4132.3077,4136.9231,4135.8974,4138.9744
4130.7692,4112.3077,4122.0513,4016.4103,4134.359,4118.9744,4132.8205,4112.3077,4134.8718,4135.3846,4150.2564,4155.3846
4147.6923,4108.2051,4128.7179,4018.9744,4130.2564,4123.5897,4134.8718,4119.4872,4146.6667,4136.9231,4145.1282,4153.3333
4147.1795,4108.2051,4130.7692,4019.4872,4122.5641,4117.9487,4128.2051,4124.6154,4150.2564,4144.6154,4144.6154,4158.4615
4140,4111.2821,4126.6667,4024.6154,4133.3333,4123.0769,4127.1795,4127.6923,4145.1282,4149.2308,4160,4163.0769
4146.1538,4109.7436,4118.4615,4010.2564,4142.5641,4123.5897,4128.2051,4120.5128,4135.3846,4143.5897,4153.3333,4147.6923
4149.7436,4105.641,4122.0513,3992.3077,4120,4111.7949,4126.1538,4116.4103,4138.9744,4144.6154,4142.5641,4147.6923
4135.3846,4077.4359,4134.8718,4011.2821,4096.9231,4107.6923,4129.2308,4122.5641,4144.1026,4146.6667,4139.4872,4150.7692
4143.0769,4068.7179,4128.2051,4029.2308,4135.8974,4118.4615,4133.8462,4121.5385,4133.8462,4138.4615,4124.6154,4138.9744
4164.1026,4105.641,4121.0256,4006.6667,4156.9231,4121.5385,4135.3846,4118.4615,4138.9744,4137.9487,4118.9744,4138.4615
4138.4615,4099.4872,4128.7179,3997.4359,4106.6667,4108.2051,4131.2821,4120.5128,4156.9231,4146.1538,4120,4132.8205
4126.1538,4077.4359,4132.3077,4013.8462,4110.7692,4110.2564,4131.2821,4127.1795,4157.4359,4150.2564,4116.9231,4124.6154
4152.3077,4089.2308,4127.6923,4006.1538,4155.8974,4123.0769,4138.9744,4132.8205,4152.3077,4150.2564,4121.0256,4127.6923
4147.1795,4095.3846,4130.7692,4003.0769,4149.2308,4122.5641,4142.5641,4135.3846,4148.2051,4151.2821,4119.4872,4127.6923
4133.3333,4122.0513,4134.359,4014.8718,4155.3846,4121.0256,4136.4103,4132.8205,4138.9744,4148.2051,4102.5641,4126.6667
4149.7436,4157.4359,4132.8205,3999.4872,4171.7949,4123.5897,4132.8205,4131.2821,4133.8462,4146.6667,4089.7436,4129.7436
4156.9231,4132.8205,4143.5897,3991.7949,4147.6923,4121.0256,4140,4145.641,4156.9231,4166.6667,4103.0769,4144.6154
4154.359,4118.4615,4154.8718,4004.6154,4151.7949,4120.5128,4146.1538,4147.6923,4176.4103,4178.9744,4121.5385,4173.3333
4166.1538,4145.1282,4149.2308,3994.359,4184.1026,4126.6667,4144.6154,4134.359,4167.6923,4168.7179,4120,4193.8462
4162.5641,4119.4872,4157.4359,3993.3333,4172.8205,4130.7692,4140.5128,4133.8462,4166.1538,4162.5641,4118.9744,4211.7949
4166.6667,4095.3846,4176.4103,4007.1795,4172.3077,4128.7179,4141.0256,4137.9487,4174.359,4171.2821,4135.3846,4282.0513
4232.3077,4175.8974,4175.8974,3987.6923,4191.7949,4133.3333,4146.6667,4149.2308,4189.7436,4189.7436,4173.8462,4396.9231
4274.8718,4206.1538,4173.8462,3971.2821,4174.359,4133.3333,4143.5897,4157.4359,4206.6667,4197.9487,4208.2051,4479.4872
4237.9487,4125.1282,4184.1026,3979.4872,4167.1795,4120.5128,4130.2564,4134.8718,4191.2821,4185.1282,4201.5385,4505.641
4228.2051,4126.1538,4175.8974,3966.6667,4195.8974,4118.9744,4130.7692,4121.5385,4174.8718,4180,4206.1538,4535.8974
4272.3077,4191.7949,4171.7949,3961.0256,4193.3333,4126.1538,4147.1795,4149.7436,4203.5897,4200.5128,4267.1795,4610.7692
4272.3077,4155.8974,4189.7436,3977.4359,4172.3077,4124.1026,4151.2821,4167.6923,4228.2051,4213.3333,4328.7179,4669.7436
4221.5385,4096.4103,4176.9231,3951.7949,4196.4103,4119.4872,4140,4149.7436,4193.3333,4191.7949,4335.3846,4658.9744
4208.7179,4143.0769,4143.0769,3909.7436,4222.0513,4124.1026,4146.1538,4149.2308,4173.8462,4181.0256,4334.359,4649.2308
4220.5128,4160.5128,4152.3077,3923.5897,4194.8718,4127.1795,4166.1538,4176.4103,4216.4103,4201.0256,4378.9744,4678.4615
4182.5641,4068.2051,4174.8718,3941.5385,4175.8974,4114.8718,4155.3846,4172.3077,4234.8718,4204.1026,4416.4103,4672.3077
4172.8205,4067.6923,4165.641,3911.2821,4209.7436,4111.2821,4137.4359,4153.3333,4217.4359,4197.4359,4393.8462,4666.6667
4218.9744,4150.7692,4160,3882.5641,4227.6923,4127.1795,4148.2051,4169.2308,4221.0256,4212.8205,4378.4615,4698.9744
4187.6923,4111.2821,4183.0769,3910.7692,4200.5128,4130.7692,4160.5128,4191.2821,4234.8718,4221.0256,4416.4103,4676.9231
4126.6667,4044.1026,4194.8718,3931.2821,4217.9487,4118.4615,4152.3077,4184.6154,4226.1538,4208.7179,4425.641,4641.5385
4161.0256,4119.4872,4168.2051,3876.9231,4269.2308,4115.3846,4145.1282,4171.2821,4207.1795,4204.1026,4377.4359,4663.5897
4190.7692,4177.4359,4147.1795,3832.3077,4256.9231,4121.5385,4154.359,4181.5385,4215.3846,4211.7949,4383.5897,4669.7436
4123.0769,4093.3333,4164.6154,3849.7436,4216.9231,4117.9487,4156.4103,4186.6667,4223.5897,4206.1538,4425.1282,4627.1795
4070.7692,4051.2821,4172.8205,3851.2821,4241.0256,4110.7692,4144.1026,4171.2821,4199.4872,4188.7179,4387.1795,4607.1795
4075.3846,4103.5897,4149.2308,3814.8718,4289.7436,4112.3077,4134.359,4166.1538,4180.5128,4180.5128,4322.5641,4610.2564
4054.8718,4108.2051,4134.359,3796.9231,4291.2821,4106.6667,4131.2821,4170.7692,4184.1026,4176.4103,4292.3077,4592.3077
4029.7436,4077.9487,4149.7436,3815.3846,4274.8718,4095.3846,4136.4103,4178.9744,4196.4103,4179.4872,4279.4872,4594.8718
4031.2821,4065.1282,4168.7179,3824.1026,4272.8205,4090.2564,4146.6667,4183.0769,4202.0513,4189.2308,4254.8718,4625.641
4017.9487,4039.4872,4167.6923,3789.2308,4293.3333,4094.8718,4157.4359,4179.4872,4190.2564,4187.1795,4204.1026,4626.1538
4009.2308,4054.359,4166.1538,3754.359,4347.1795,4111.7949,4168.7179,4192.8205,4193.3333,4185.641,4177.9487,4613.3333
4022.5641,4099.4872,4179.4872,3767.1795,4363.5897,4116.4103,4177.9487,4212.3077,4214.8718,4196.4103,4184.6154,4624.6154
4010.7692,4064.6154,4179.4872,3768.7179,4330.7692,4103.5897,4173.8462,4204.6154,4216.9231,4197.4359,4176.4103,4637.4359
3984.1026,4023.5897,4166.6667,3730.2564,4340,4100.5128,4157.9487,4187.1795,4202.5641,4186.1538,4145.1282,4628.7179
3991.7949,4062.0513,4171.7949,3723.0769,4369.7436,4110.2564,4160,4188.2051,4201.5385,4183.5897,4115.3846,4614.359
4011.2821,4075.8974,4186.1538,3747.6923,4368.2051,4117.9487,4181.5385,4197.9487,4212.3077,4193.8462,4097.9487,4617.9487
4012.3077,4037.9487,4183.5897,3737.9487,4360.5128,4114.359,4196.4103,4203.5897,4215.8974,4196.9231,4088.2051,4630.7692
4009.7436,4035.3846,4173.3333,3707.6923,4358.4615,4110.2564,4200.5128,4212.3077,4222.0513,4197.9487,4088.2051,4636.4103
4014.359,4052.8205,4176.9231,3701.5385,4351.7949,4117.9487,4202.5641,4221.0256,4226.6667,4198.9744,4074.359,4633.8462
4025.1282,4062.0513,4182.0513,3710.7692,4359.4872,4126.1538,4201.0256,4217.4359,4215.3846,4192.8205,4049.2308,4629.7436
4032.3077,4081.5385,4181.0256,3721.0256,4386.1538,4129.2308,4204.1026,4221.0256,4211.7949,4192.8205,4057.9487,4632.3077
4013.3333,4077.9487,4178.4615,3721.5385,4392.3077,4138.9744,4214.359,4232.3077,4221.5385,4192.3077,4085.1282,4620.5128
4005.1282,4066.1538,4176.9231,3717.4359,4387.6923,4149.7436,4214.8718,4234.359,4227.1795,4190.7692,4090.2564,4611.7949
4024.1026,4081.5385,4181.5385,3726.6667,4410.2564,4149.2308,4205.641,4227.6923,4224.1026,4191.7949,4082.5641,4623.0769
4027.6923,4094.8718,4181.0256,3724.1026,4436.4103,4143.0769,4201.5385,4217.9487,4209.7436,4186.6667,4072.3077,4611.2821
4029.7436,4101.0256,4175.8974,3705.1282,4434.8718,4146.6667,4205.641,4214.359,4206.1538,4188.2051,4067.1795,4606.6667
4043.0769,4097.9487,4176.9231,3708.2051,4418.4615,4148.7179,4209.2308,4218.4615,4213.3333,4194.8718,4063.5897,4615.8974
4047.6923,4088.7179,4181.0256,3719.4872,4412.8205,4147.6923,4208.7179,4220.5128,4210.2564,4196.4103,4057.9487,4601.5385
4060,4107.1795,4185.641,3713.3333,4430.7692,4155.8974,4212.8205,4223.5897,4208.2051,4205.641,4067.6923,4598.4615
4074.8718,4116.9231,4186.6667,3713.3333,4424.6154,4156.9231,4218.4615,4224.6154,4215.3846,4216.9231,4075.3846,4616.9231
4072.3077,4114.359,4187.6923,3726.1538,4394.359,4147.6923,4215.3846,4225.1282,4219.4872,4214.8718,4069.7436,4618.4615
4071.7949,4127.1795,4189.7436,3734.8718,4389.2308,4145.1282,4211.7949,4230.7692,4219.4872,4211.2821,4069.7436,4598.9744
4075.8974,4115.8974,4191.7949,3735.8974,4385.641,4150.7692,4216.9231,4240,4226.1538,4213.8462,4077.4359,4587.6923
4076.4103,4106.1538,4198.4615,3742.5641,4370.2564,4156.9231,4219.4872,4244.1026,4233.3333,4220,4085.641,4597.9487
4075.3846,4141.5385,4201.0256,3753.8462,4379.4872,4156.9231,4211.7949,4233.8462,4225.1282,4215.3846,4083.0769,4603.0769
4090.7692,4169.7436,4196.4103,3762.0513,4398.9744,4158.4615,4213.3333,4230.2564,4224.1026,4210.7692,4077.9487,4594.8718
4107.6923,4168.7179,4195.3846,3766.1538,4390.7692,4162.5641,4218.9744,4236.9231,4239.4872,4214.8718,4078.4615,4593.8462
4102.5641,4174.359,4200,3765.1282,4372.8205,4164.1026,4217.9487,4228.2051,4238.4615,4215.8974,4070.2564,4586.1538
4101.0256,4170.2564,4203.0769,3769.7436,4372.3077,4169.2308,4217.9487,4210.7692,4229.7436,4213.3333,4061.5385,4561.5385
4098.4615,4148.7179,4197.4359,3770.7692,4377.4359,4170.7692,4217.9487,4202.0513,4232.3077,4208.2051,4054.359,4537.9487
4091.7949,4154.8718,4193.8462,3766.6667,4371.7949,4165.1282,4216.9231,4200.5128,4236.4103,4208.2051,4052.8205,4527.6923
4107.6923,4171.2821,4196.9231,3782.0513,4362.0513,4163.0769,4214.359,4197.4359,4232.8205,4211.7949,4057.9487,4530.7692
4130.7692,4176.9231,4201.0256,3796.9231,4368.2051,4165.1282,4211.7949,4192.3077,4232.3077,4213.8462,4058.4615,4525.1282
4130.7692,4178.9744,4203.0769,3797.9487,4375.8974,4170.7692,4214.8718,4193.3333,4239.4872,4215.8974,4060,4501.0256
4120.5128,4166.1538,4200.5128,3801.5385,4365.1282,4176.4103,4218.4615,4191.7949,4230.7692,4211.2821,4061.5385,4487.1795
4128.2051,4162.0513,4197.9487,3813.3333,4364.6154,4177.4359,4213.8462,4193.3333,4220.5128,4210.2564,4058.9744,4496.4103
4142.5641,4192.8205,4200.5128,3819.4872,4371.2821,4173.8462,4205.1282,4197.4359,4228.2051,4212.3077,4058.9744,4494.359
4138.4615,4214.8718,4208.2051,3825.641,4339.4872,4173.3333,4204.6154,4197.9487,4236.4103,4213.3333,4066.6667,4481.0256
4122.5641,4187.1795,4209.2308,3835.3846,4318.4615,4176.4103,4205.641,4197.4359,4230.7692,4212.8205,4063.0769,4468.7179
4114.359,4155.3846,4198.4615,3835.8974,4333.8462,4172.8205,4200.5128,4187.6923,4215.3846,4205.1282,4046.1538,4447.6923
4126.6667,4173.8462,4191.2821,3837.9487,4345.641,4171.2821,4199.4872,4175.3846,4205.641,4202.0513,4044.1026,4443.5897
4139.4872,4206.1538,4195.8974,3844.6154,4334.8718,4173.3333,4202.5641,4173.3333,4212.3077,4207.6923,4044.6154,4448.7179
4132.8205,4206.6667,4199.4872,3843.5897,4323.5897,4168.7179,4200,4172.8205,4216.9231,4206.1538,4040,4430.2564
4130.2564,4206.1538,4201.5385,3847.6923,4318.9744,4161.5385,4193.3333,4171.2821,4211.2821,4203.5897,4052.8205,4416.4103
4137.9487,4201.0256,4200.5128,3868.7179,4302.5641,4157.9487,4188.2051,4167.6923,4211.2821,4203.5897,4061.0256,4417.4359
4138.4615,4182.5641,4195.3846,3875.3846,4311.7949,4160.5128,4183.5897,4163.5897,4216.4103,4203.5897,4052.3077,4410.7692
4147.1795,4204.1026,4202.5641,3869.7436,4333.3333,4160.5128,4183.0769,4166.1538,4221.5385,4212.3077,4058.9744,4410.2564
4156.9231,4231.7949,4212.3077,3886.1538,4296.4103,4152.3077,4185.1282,4168.2051,4221.0256,4217.9487,4072.3077,4404.6154
4146.1538,4209.7436,4205.641,3908.2051,4264.1026,4151.2821,4185.1282,4163.5897,4213.3333,4212.8205,4065.1282,4378.4615
4133.8462,4190.7692,4195.3846,3897.4359,4299.4872,4161.0256,4190.2564,4160,4202.5641,4205.641,4052.8205,4372.8205
4143.5897,4214.359,4191.7949,3881.5385,4335.8974,4171.2821,4205.641,4161.0256,4200.5128,4204.1026,4056.4103,4385.1282
4156.4103,4234.359,4194.8718,3912.3077,4314.359,4172.8205,4220.5128,4173.3333,4212.8205,4207.1795,4066.1538,4384.6154
4148.2051,4213.3333,4200,3948.2051,4273.8462,4157.9487,4216.4103,4176.9231,4207.6923,4203.0769,4057.9487,4370.2564
4140.5128,4194.8718,4195.8974,3945.1282,4276.4103,4150.7692,4202.5641,4164.1026,4191.7949,4197.4359,4053.8462,4357.9487
4155.8974,4216.4103,4191.2821,3938.4615,4320.5128,4165.1282,4201.0256,4160.5128,4195.8974,4202.5641,4072.3077,4356.4103
4155.8974,4216.4103,4191.2821,3938.4615,4320.5128,4165.1282,4201.0256,4160.5128,4195.8974,4202.5641,4072.3077,4356.4103
4172.3077,4237.9487,4194.8718,3959.4872,4331.7949,4165.641,4205.641,4169.2308,4206.6667,4213.8462,4086.1538,4359.4872
4166.6667,4220.5128,4194.8718,3985.641,4289.2308,4149.7436,4198.9744,4170.2564,4201.5385,4210.7692,4081.5385,4350.7692
4151.7949,4203.5897,4181.5385,3988.7179,4280,4148.2051,4184.6154,4163.5897,4186.6667,4197.4359,4065.641,4328.7179
4155.8974,4216.4103,4180,3987.6923,4286.1538,4148.2051,4180.5128,4161.5385,4180,4199.4872,4063.0769,4328.2051
4165.641,4225.1282,4192.8205,4002.0513,4269.2308,4147.1795,4184.1026,4162.0513,4184.6154,4207.1795,4080.5128,4334.359
4169.2308,4232.3077,4199.4872,4023.0769,4287.6923,4156.4103,4187.6923,4164.1026,4196.4103,4207.1795,4093.8462,4320
4179.4872,4239.4872,4204.6154,4038.9744,4298.4615,4155.8974,4189.7436,4168.2051,4202.5641,4210.2564,4086.1538,4323.5897
4176.4103,4215.3846,4197.9487,4034.359,4267.1795,4142.5641,4185.1282,4152.8205,4185.1282,4203.0769,4063.0769,4324.1026
4160,4206.6667,4181.5385,4021.0256,4267.6923,4142.0513,4183.0769,4130.7692,4167.6923,4190.2564,4053.8462,4297.9487
4170.7692,4238.4615,4177.9487,4028.7179,4290.2564,4160,4195.3846,4136.9231,4173.8462,4193.3333,4066.1538,4290.7692
4178.9744,4232.8205,4185.1282,4045.641,4276.9231,4167.6923,4198.4615,4148.7179,4174.359,4198.9744,4069.7436,4297.4359
4155.3846,4203.5897,4186.6667,4049.7436,4267.6923,4154.359,4186.6667,4144.6154,4167.6923,4199.4872,4064.6154,4289.2308
4151.7949,4214.359,4186.6667,4052.8205,4265.1282,4137.9487,4177.9487,4141.5385,4172.8205,4203.0769,4068.2051,4284.1026
4182.0513,4232.8205,4189.7436,4058.4615,4253.8462,4138.4615,4173.8462,4144.6154,4175.8974,4209.2308,4075.3846,4287.6923
4191.7949,4234.8718,4187.1795,4055.3846,4269.2308,4146.1538,4173.3333,4143.5897,4165.1282,4209.2308,4074.359,4281.0256
4171.2821,4235.3846,4181.5385,4049.7436,4277.4359,4143.0769,4177.4359,4138.9744,4156.9231,4199.4872,4063.0769,4268.2051
4166.1538,4231.2821,4184.6154,4058.4615,4255.3846,4152.8205,4184.1026,4143.0769,4165.641,4195.3846,4070.7692,4267.6923
4173.8462,4226.1538,4192.8205,4077.9487,4246.1538,4164.6154,4191.7949,4150.2564,4180.5128,4201.0256,4095.8974,4277.4359
4177.9487,4236.9231,4189.2308,4092.3077,4256.4103,4153.3333,4193.8462,4150.7692,4183.5897,4200.5128,4090.2564,4278.9744
4178.4615,4242.5641,4176.4103,4084.6154,4260,4144.1026,4186.1538,4144.1026,4173.3333,4189.2308,4065.1282,4260.5128
4165.641,4224.6154,4170.2564,4066.1538,4249.7436,4147.6923,4180.5128,4129.7436,4158.9744,4181.0256,4062.0513,4243.0769
4162.5641,4227.6923,4174.8718,4071.2821,4238.4615,4147.6923,4184.1026,4127.1795,4156.9231,4188.2051,4073.3333,4240.5128
4169.2308,4248.2051,4182.0513,4088.7179,4243.0769,4142.0513,4186.1538,4142.5641,4164.1026,4195.8974,4077.4359,4223.0769
4153.8462,4236.9231,4177.4359,4089.2308,4248.7179,4136.4103,4177.9487,4149.7436,4163.0769,4190.2564,4080.5128,4203.0769
4147.1795,4226.6667,4171.2821,4087.6923,4239.4872,4133.3333,4170.2564,4145.641,4158.9744,4186.6667,4088.7179,4214.359
4172.3077,4246.6667,4173.3333,4093.3333,4240.5128,4139.4872,4172.8205,4144.1026,4163.0769,4190.2564,4096.9231,4224.6154
4182.0513,4263.5897,4177.4359,4096.4103,4264.6154,4152.3077,4175.8974,4142.0513,4169.2308,4193.3333,4105.1282,4214.8718
4165.1282,4257.4359,4180.5128,4099.4872,4261.5385,4151.7949,4175.3846,4137.4359,4169.7436,4192.8205,4109.2308,4210.2564
4156.9231,4240,4181.0256,4100.5128,4225.1282,4142.5641,4173.8462,4134.359,4160,4189.2308,4102.5641,4202.5641
4170.2564,4235.8974,4178.4615,4101.0256,4228.2051,4149.2308,4171.2821,4133.8462,4151.7949,4185.641,4096.9231,4201.0256
4174.359,4251.7949,4175.8974,4112.3077,4253.3333,4164.1026,4177.4359,4138.4615,4153.3333,4185.641,4106.6667,4215.8974
4157.9487,4258.4615,4177.9487,4122.0513,4249.7436,4168.2051,4185.1282,4143.0769,4152.8205,4191.7949,4116.9231,4206.6667
4144.1026,4243.0769,4172.8205,4111.2821,4228.7179,4159.4872,4176.4103,4138.4615,4143.5897,4189.7436,4106.6667,4175.8974
4135.8974,4234.359,4163.0769,4095.8974,4219.4872,4144.6154,4165.1282,4130.2564,4138.9744,4181.5385,4090.7692,4167.1795
4136.4103,4241.0256,4164.6154,4101.0256,4221.0256,4140.5128,4170.2564,4132.8205,4143.5897,4187.6923,4098.9744,4181.5385
4145.641,4245.641,4166.6667,4106.6667,4216.9231,4147.1795,4171.7949,4134.8718,4136.9231,4192.8205,4108.2051,4184.6154
4152.3077,4252.8205,4162.5641,4101.5385,4223.0769,4149.7436,4163.0769,4132.8205,4125.1282,4189.7436,4102.5641,4186.1538
4153.8462,4263.5897,4165.641,4107.6923,4222.0513,4140.5128,4161.0256,4139.4872,4133.8462,4190.7692,4109.2308,4195.8974
4142.5641,4246.1538,4168.2051,4120,4193.8462,4129.7436,4164.1026,4146.6667,4140.5128,4189.7436,4123.0769,4183.0769
4127.6923,4215.8974,4164.1026,4117.4359,4185.1282,4131.7949,4159.4872,4141.5385,4131.7949,4184.6154,4118.9744,4172.3077
4133.8462,4224.6154,4158.4615,4109.2308,4208.2051,4135.3846,4150.2564,4133.3333,4122.0513,4182.5641,4104.6154,4175.8974
4152.8205,4254.359,4160,4117.4359,4220.5128,4137.4359,4153.3333,4141.5385,4122.5641,4189.7436,4106.6667,4168.7179
4152.3077,4255.8974,4165.1282,4132.8205,4216.9231,4146.6667,4162.0513,4146.6667,4121.5385,4188.7179,4119.4872,4156.9231
4138.9744,4239.4872,4162.0513,4131.7949,4211.7949,4145.1282,4159.4872,4131.2821,4111.2821,4178.9744,4113.8462,4160
4135.3846,4238.9744,4153.8462,4125.1282,4208.7179,4129.7436,4156.4103,4127.6923,4111.7949,4176.9231,4108.7179,4166.1538
4130.7692,4236.9231,4147.1795,4127.1795,4215.3846,4126.1538,4157.9487,4138.9744,4114.359,4174.359,4109.7436,4149.7436
4124.1026,4217.9487,4148.7179,4131.7949,4202.0513,4134.359,4156.4103,4144.1026,4109.2308,4170.2564,4111.7949,4134.8718
4123.5897,4202.0513,4157.4359,4134.8718,4176.4103,4135.8974,4153.8462,4141.0256,4111.2821,4175.3846,4120.5128,4140
4123.5897,4203.0769,4151.7949,4133.8462,4190.7692,4130.7692,4154.8718,4133.3333,4109.7436,4177.4359,4113.3333,4137.4359
4131.2821,4218.4615,4141.5385,4130.7692,4220.5128,4128.7179,4151.2821,4135.8974,4104.6154,4172.3077,4095.3846,4133.3333
4131.7949,4223.5897,4142.5641,4127.1795,4205.641,4129.7436,4143.0769,4144.6154,4107.1795,4166.6667,4100.5128,4135.8974
4125.1282,4217.9487,4149.2308,4126.1538,4181.0256,4129.7436,4142.0513,4142.0513,4111.7949,4165.641,4120.5128,4140
4128.2051,4213.8462,4147.1795,4124.6154,4188.7179,4124.6154,4142.0513,4134.359,4108.7179,4165.1282,4127.1795,4137.9487
4118.4615,4194.8718,4133.8462,4117.9487,4175.8974,4120,4136.4103,4128.7179,4093.8462,4157.9487,4121.0256,4117.9487
4103.0769,4185.1282,4122.5641,4115.3846,4152.3077,4121.5385,4136.4103,4124.1026,4081.5385,4154.359,4115.3846,4102.5641
4098.9744,4195.3846,4115.3846,4118.4615,4148.7179,4113.3333,4135.8974,4117.4359,4072.3077,4151.7949,4106.6667,4101.5385
4089.2308,4181.0256,4106.6667,4115.8974,4140.5128,4097.9487,4125.641,4108.2051,4057.9487,4143.5897,4089.2308,4089.7436
4076.4103,4152.8205,4092.8205,4098.4615,4132.8205,4092.8205,4114.359,4099.4872,4042.0513,4134.359,4074.8718,4070.7692
4071.7949,4158.4615,4086.1538,4084.1026,4129.2308,4090.2564,4110.2564,4095.3846,4040,4130.7692,4073.3333,4062.0513
4082.5641,4175.8974,4096.9231,4098.9744,4122.0513,4090.2564,4114.359,4098.9744,4058.4615,4139.4872,4082.0513,4062.5641
4085.641,4160,4096.9231,4113.8462,4120.5128,4095.8974,4115.8974,4102.5641,4064.1026,4139.4872,4080.5128,4055.8974
4071.2821,4142.5641,4077.9487,4103.5897,4129.7436,4095.8974,4105.1282,4095.8974,4049.2308,4129.2308,4068.7179,4038.4615
4077.4359,4162.0513,4075.3846,4100,4133.8462,4095.8974,4102.5641,4094.8718,4052.3077,4133.3333,4074.8718,4029.2308
4095.3846,4175.8974,4087.6923,4109.7436,4136.4103,4095.3846,4110.2564,4098.9744,4067.1795,4136.9231,4088.7179,4034.8718
4099.4872,4176.4103,4091.2821,4121.0256,4127.1795,4090.2564,4111.2821,4101.0256,4067.6923,4133.8462,4094.8718,4046.1538
4094.359,4176.9231,4097.4359,4138.4615,4109.2308,4093.8462,4110.7692,4103.0769,4068.7179,4141.5385,4098.9744,4053.3333
4086.1538,4155.3846,4097.9487,4138.9744,4124.1026,4101.5385,4109.7436,4099.4872,4067.1795,4145.641,4098.9744,4049.7436
4074.8718,4133.8462,4085.641,4118.4615,4149.7436,4097.9487,4104.1026,4089.7436,4055.3846,4132.8205,4097.9487,4047.6923
4075.8974,4146.6667,4085.641,4118.9744,4143.0769,4095.3846,4104.1026,4087.1795,4050.2564,4127.1795,4101.5385,4051.2821
4086.1538,4154.359,4094.359,4140.5128,4132.3077,4100,4107.6923,4090.2564,4057.9487,4137.9487,4098.4615,4055.3846
4088.2051,4143.0769,4090.2564,4143.0769,4140,4103.0769,4106.1538,4093.3333,4066.6667,4140.5128,4094.8718,4063.5897
4088.7179,4148.2051,4086.6667,4131.2821,4125.1282,4102.0513,4106.6667,4097.4359,4070.2564,4133.8462,4104.1026,4069.7436
4090.7692,4154.8718,4092.3077,4128.7179,4111.7949,4104.1026,4109.2308,4098.4615,4071.2821,4133.3333,4111.2821,4069.2308
4090.2564,4142.5641,4093.8462,4128.7179,4140,4108.2051,4108.2051,4093.3333,4072.3077,4135.3846,4106.1538,4059.4872
4092.8205,4142.5641,4103.0769,4129.7436,4154.8718,4113.3333,4110.2564,4092.8205,4076.9231,4138.4615,4112.8205,4055.8974
4104.6154,4157.4359,4112.8205,4135.8974,4137.4359,4117.9487,4110.2564,4093.8462,4082.5641,4137.4359,4124.6154,4066.6667
4113.3333,4154.359,4102.5641,4142.5641,4133.3333,4116.9231,4106.1538,4087.6923,4079.4872,4136.4103,4117.4359,4064.1026
4109.2308,4142.0513,4090.7692,4143.5897,4139.4872,4117.4359,4104.6154,4080.5128,4076.4103,4136.4103,4108.7179,4046.1538
4102.0513,4141.0256,4090.2564,4137.9487,4131.7949,4117.9487,4105.641,4077.4359,4073.8462,4126.6667,4116.4103,4037.4359
4102.0513,4144.1026,4096.4103,4147.1795,4136.4103,4116.4103,4106.6667,4078.4615,4073.8462,4121.0256,4126.6667,4046.6667
4108.2051,4148.2051,4106.6667,4179.4872,4147.1795,4117.4359,4111.2821,4081.0256,4082.5641,4131.7949,4133.3333,4055.3846
4110.7692,4139.4872,4107.1795,4194.359,4132.3077,4118.9744,4109.7436,4077.4359,4078.4615,4132.8205,4125.1282,4047.6923
4120.5128,4132.3077,4099.4872,4186.6667,4137.9487,4127.1795,4105.1282,4074.8718,4068.2051,4128.7179,4121.0256,4049.2308
4129.7436,4152.8205,4106.1538,4186.1538,4159.4872,4133.8462,4113.8462,4078.9744,4075.8974,4138.4615,4135.8974,4063.0769
4129.2308,4171.2821,4121.0256,4200,4149.7436,4131.7949,4125.1282,4085.1282,4085.1282,4146.6667,4146.1538,4066.1538
4133.3333,4162.0513,4129.7436,4217.4359,4134.359,4133.3333,4123.5897,4090.7692,4084.1026,4146.6667,4146.1538,4067.6923
4132.3077,4151.2821,4127.1795,4217.4359,4134.359,4132.8205,4118.9744,4091.7949,4083.0769,4148.2051,4141.0256,4070.2564
4125.1282,4158.4615,4122.5641,4202.5641,4153.8462,4129.2308,4121.0256,4089.7436,4079.4872,4149.2308,4136.4103,4055.3846
4125.1282,4156.9231,4121.0256,4206.1538,4156.9231,4128.2051,4124.1026,4089.7436,4071.7949,4146.1538,4133.8462,4042.5641
4126.6667,4136.9231,4116.9231,4216.9231,4133.3333,4126.1538,4115.8974,4087.1795,4066.1538,4144.6154,4126.6667,4044.1026
4132.8205,4134.8718,4111.7949,4208.7179,4123.0769,4122.5641,4106.1538,4085.641,4063.0769,4146.6667,4124.1026,4042.0513
4143.0769,4147.1795,4111.7949,4206.6667,4133.8462,4128.2051,4110.2564,4085.641,4062.5641,4147.1795,4132.8205,4036.9231
4142.5641,4147.6923,4112.8205,4215.3846,4151.7949,4137.4359,4118.4615,4086.1538,4064.1026,4146.6667,4139.4872,4036.4103
4138.9744,4143.5897,4111.7949,4211.7949,4142.5641,4133.3333,4120,4088.7179,4064.6154,4145.641,4135.3846,4031.2821
4143.0769,4149.7436,4115.8974,4207.1795,4126.6667,4128.7179,4117.9487,4083.5897,4061.0256,4143.0769,4129.2308,4023.5897
4145.641,4156.9231,4123.5897,4215.8974,4130.2564,4132.3077,4113.3333,4072.3077,4061.0256,4141.0256,4135.3846,4027.1795
4139.4872,4137.9487,4115.8974,4215.8974,4129.2308,4121.0256,4106.6667,4065.1282,4059.4872,4134.8718,4138.4615,4017.4359
4135.3846,4122.5641,4100.5128,4200.5128,4115.3846,4111.7949,4106.6667,4065.641,4054.359,4129.7436,4130.2564,4004.6154
4123.0769,4133.8462,4096.9231,4191.7949,4120,4122.0513,4109.7436,4067.1795,4051.2821,4126.6667,4130.7692,4001.5385
4108.7179,4137.9487,4099.4872,4191.2821,4133.3333,4115.3846,4103.5897,4060.5128,4047.1795,4121.0256,4135.3846,3984.6154
4122.5641,4133.3333,4107.1795,4194.8718,4126.6667,4100,4098.9744,4058.4615,4047.6923,4124.1026,4133.8462,3989.2308
4133.8462,4130.7692,4111.2821,4189.7436,4129.2308,4107.6923,4101.0256,4054.8718,4041.5385,4123.5897,4124.1026,4010.7692
4128.7179,4130.7692,4109.2308,4184.1026,4124.1026,4118.9744,4109.2308,4054.359,4037.4359,4118.4615,4124.1026,4008.2051
4122.0513,4120.5128,4106.1538,4189.2308,4094.359,4116.4103,4112.3077,4067.1795,4046.6667,4118.4615,4135.8974,3999.4872
4112.3077,4110.7692,4101.5385,4191.7949,4104.6154,4109.7436,4106.6667,4069.2308,4047.6923,4117.9487,4140,4007.6923
4123.0769,4132.8205,4098.9744,4194.8718,4140,4108.2051,4105.641,4070.2564,4047.1795,4117.4359,4148.2051,4025.641
4138.9744,4151.2821,4102.5641,4202.5641,4131.7949,4110.2564,4109.7436,4078.9744,4049.7436,4119.4872,4152.3077,4035.3846
4126.1538,4137.4359,4106.1538,4207.1795,4104.1026,4111.2821,4110.7692,4075.3846,4044.6154,4123.0769,4141.0256,4039.4872
4116.4103,4130.7692,4102.0513,4206.1538,4112.8205,4104.1026,4107.6923,4069.2308,4042.5641,4124.6154,4138.4615,4047.6923
4129.7436,4142.5641,4098.4615,4211.2821,4125.641,4102.0513,4106.6667,4081.5385,4049.7436,4125.641,4150.7692,4053.3333
4135.8974,4149.2308,4102.0513,4227.1795,4110.2564,4110.2564,4109.7436,4095.8974,4057.4359,4125.1282,4154.359,4039.4872
4131.7949,4152.8205,4105.1282,4232.8205,4103.0769,4107.1795,4108.2051,4091.7949,4055.3846,4123.0769,4143.5897,4022.5641
4135.8974,4151.2821,4103.0769,4232.3077,4122.0513,4101.5385,4098.9744,4081.5385,4052.3077,4124.1026,4146.1538,4024.1026
4132.3077,4133.8462,4100,4231.7949,4128.7179,4107.1795,4091.7949,4073.8462,4055.3846,4123.0769,4155.8974,4012.8205
4121.0256,4127.6923,4098.9744,4232.3077,4101.5385,4102.5641,4092.3077,4070.7692,4050.2564,4117.4359,4142.5641,3989.2308
4130.7692,4149.2308,4100.5128,4232.8205,4093.8462,4092.8205,4087.6923,4068.2051,4040.5128,4116.4103,4126.1538,3997.4359
4139.4872,4156.9231,4102.0513,4236.4103,4109.7436,4094.8718,4084.1026,4065.641,4042.0513,4115.8974,4134.359,4014.8718
4124.6154,4134.8718,4094.359,4242.5641,4095.8974,4093.8462,4088.7179,4067.1795,4044.6154,4109.7436,4140.5128,4004.1026
4111.7949,4118.4615,4080.5128,4242.0513,4079.4872,4090.2564,4094.359,4071.2821,4036.4103,4103.5897,4132.3077,3978.4615
4104.6154,4112.3077,4072.8205,4231.7949,4088.7179,4090.7692,4090.2564,4065.1282,4023.0769,4095.8974,4123.0769,3962.5641
4099.4872,4101.5385,4077.9487,4231.7949,4085.1282,4082.0513,4079.4872,4051.2821,4015.8974,4096.4103,4112.8205,3972.8205
4104.1026,4099.4872,4086.1538,4242.0513,4067.6923,4076.9231,4081.0256,4044.1026,4019.4872,4105.641,4111.2821,3986.1538
4111.7949,4112.3077,4089.7436,4235.8974,4077.4359,4086.1538,4088.7179,4050.7692,4031.7949,4111.2821,4129.7436,3984.6154
4123.0769,4123.0769,4090.7692,4234.8718,4090.2564,4086.1538,4083.0769,4058.9744,4041.5385,4107.6923,4138.9744,4001.5385
4130.7692,4124.1026,4089.2308,4255.8974,4083.0769,4072.8205,4075.3846,4061.0256,4040,4102.0513,4128.7179,4022.5641
4125.641,4124.1026,4085.641,4258.9744,4091.2821,4073.8462,4080,4068.7179,4044.1026,4105.641,4135.3846,4011.2821
4114.359,4121.0256,4082.0513,4249.7436,4085.1282,4080.5128,4081.5385,4075.3846,4051.2821,4109.2308,4147.6923,3993.8462
4111.2821,4114.8718,4087.1795,4262.0513,4055.8974,4078.4615,4074.359,4069.2308,4047.1795,4107.1795,4138.9744,3993.3333
4118.4615,4111.2821,4096.9231,4275.8974,4066.1538,4080.5128,4075.8974,4067.6923,4043.0769,4106.6667,4126.6667,3994.359
4119.4872,4106.6667,4088.7179,4271.7949,4095.3846,4083.0769,4078.4615,4070.2564,4042.0513,4104.6154,4120.5128,3990.7692
4110.7692,4107.1795,4074.359,4268.2051,4081.5385,4085.1282,4076.4103,4068.7179,4038.9744,4105.1282,4120.5128,3988.2051
4107.1795,4118.9744,4077.9487,4264.6154,4060,4088.7179,4079.4872,4071.2821,4034.8718,4108.7179,4123.0769,3987.6923
4122.0513,4125.641,4089.2308,4263.5897,4079.4872,4087.1795,4085.1282,4077.4359,4033.8462,4112.3077,4121.5385,3998.4615
4138.9744,4116.9231,4094.359,4271.2821,4090.7692,4082.0513,4085.641,4079.4872,4041.0256,4115.8974,4129.2308,4010.2564
4129.7436,4097.4359,4094.8718,4266.6667,4069.7436,4081.0256,4080,4076.9231,4047.1795,4114.8718,4141.0256,3990.7692
4112.3077,4091.7949,4092.8205,4257.4359,4062.5641,4084.1026,4076.4103,4071.2821,4047.6923,4114.359,4141.0256,3969.2308
4114.359,4103.5897,4089.2308,4259.4872,4081.5385,4085.641,4074.359,4066.6667,4043.5897,4114.8718,4141.5385,3976.9231
4129.7436,4112.3077,4085.1282,4260.5128,4095.8974,4085.641,4074.359,4067.6923,4036.4103,4111.7949,4148.2051,3986.1538
4138.9744,4112.3077,4085.641,4268.2051,4089.2308,4085.1282,4078.4615,4076.4103,4036.9231,4111.2821,4152.3077,3986.1538
4124.1026,4088.7179,4077.4359,4275.3846,4070.2564,4074.8718,4075.8974,4073.8462,4035.3846,4105.1282,4145.1282,3973.3333
4107.1795,4059.4872,4059.4872,4258.4615,4051.7949,4065.641,4071.7949,4061.0256,4023.5897,4092.8205,4132.8205,3958.9744
4105.641,4057.9487,4051.7949,4235.8974,4050.7692,4072.3077,4073.3333,4063.0769,4016.9231,4084.1026,4120.5128,3956.4103
4102.0513,4061.5385,4052.3077,4228.7179,4052.8205,4078.4615,4075.3846,4066.6667,4016.4103,4081.5385,4111.7949,3954.359
4103.0769,4058.9744,4056.4103,4229.7436,4044.1026,4073.8462,4076.4103,4061.5385,4017.4359,4082.5641,4116.9231,3951.2821
4111.2821,4070.2564,4064.6154,4235.3846,4039.4872,4069.7436,4074.8718,4054.8718,4016.9231,4081.0256,4122.5641,3953.3333
4119.4872,4081.5385,4069.7436,4246.6667,4054.359,4070.2564,4066.6667,4052.8205,4017.4359,4082.5641,4126.6667,3958.4615
4123.0769,4070.2564,4068.7179,4257.4359,4060.5128,4068.7179,4057.9487,4055.3846,4020,4085.1282,4130.7692,3962.5641
4120,4052.8205,4064.6154,4258.9744,4033.8462,4067.1795,4055.3846,4051.2821,4012.8205,4080.5128,4117.4359,3954.359
4112.3077,4044.1026,4058.9744,4248.2051,4037.4359,4072.3077,4055.8974,4047.6923,4004.1026,4075.8974,4098.9744,3936.4103
4109.2308,4047.1795,4051.7949,4236.4103,4075.8974,4075.8974,4058.9744,4055.3846,4002.5641,4075.8974,4097.9487,3925.641
4115.8974,4067.6923,4058.9744,4252.3077,4078.9744,4075.3846,4065.641,4070.7692,4011.7949,4080,4108.7179,3938.4615
4119.4872,4073.8462,4071.7949,4272.8205,4056.4103,4076.4103,4067.1795,4074.8718,4023.5897,4084.6154,4118.4615,3959.4872
4111.7949,4054.8718,4071.7949,4262.0513,4040.5128,4079.4872,4064.6154,4065.1282,4024.6154,4084.1026,4120,3957.4359
4106.6667,4055.3846,4073.3333,4255.3846,4040.5128,4080.5128,4066.1538,4062.5641,4027.6923,4082.5641,4123.0769,3948.7179
4113.8462,4070.7692,4079.4872,4266.1538,4056.4103,4075.3846,4065.1282,4060,4028.2051,4081.5385,4125.1282,3957.4359
4120.5128,4067.6923,4076.4103,4259.4872,4061.0256,4069.7436,4056.4103,4045.1282,4016.4103,4077.9487,4117.9487,3968.7179
4122.0513,4064.1026,4074.359,4250.7692,4041.0256,4070.7692,4054.8718,4044.1026,4014.359,4077.9487,4116.9231,3963.0769
4123.5897,4067.1795,4080.5128,4261.5385,4047.6923,4071.2821,4059.4872,4058.9744,4021.5385,4081.5385,4126.1538,3960.5128
4130.2564,4072.3077,4084.6154,4269.7436,4076.9231,4072.8205,4058.4615,4064.1026,4024.6154,4085.1282,4130.2564,3983.0769
4136.4103,4075.8974,4088.7179,4268.7179,4064.1026,4075.8974,4060,4067.1795,4029.7436,4086.6667,4129.7436,4001.5385
4131.7949,4067.1795,4089.2308,4266.6667,4037.9487,4073.8462,4065.641,4076.4103,4034.359,4084.1026,4131.7949,3993.8462
4128.7179,4056.4103,4081.5385,4262.0513,4049.2308,4075.8974,4070.2564,4077.9487,4032.3077,4078.4615,4137.4359,3980.5128
4128.7179,4054.359,4074.359,4263.5897,4066.6667,4084.6154,4073.8462,4074.8718,4028.2051,4073.8462,4137.4359,3976.4103
4134.359,4061.0256,4077.4359,4279.4872,4061.0256,4089.7436,4073.3333,4074.8718,4029.2308,4075.3846,4134.8718,3989.2308
4136.4103,4068.2051,4085.1282,4294.8718,4049.2308,4088.7179,4070.7692,4069.2308,4034.8718,4079.4872,4140,4000.5128
4127.6923,4054.8718,4082.5641,4288.2051,4050.7692,4087.6923,4070.7692,4062.5641,4032.8205,4077.9487,4140,3989.2308
4134.359,4039.4872,4074.8718,4281.0256,4052.3077,4088.7179,4066.6667,4066.1538,4027.1795,4074.359,4133.3333,3989.7436
4149.2308,4047.1795,4077.4359,4296.9231,4046.1538,4088.7179,4064.6154,4070.7692,4030.2564,4074.359,4138.9744,4007.6923
4149.2308,4060.5128,4084.1026,4305.641,4053.3333,4090.7692,4073.3333,4074.8718,4041.0256,4075.8974,4149.7436,4009.7436
4153.3333,4070.2564,4090.2564,4298.4615,4071.2821,4095.8974,4077.4359,4090.2564,4053.8462,4083.5897,4156.4103,4011.2821
4164.6154,4080,4100.5128,4304.6154,4076.4103,4093.8462,4074.8718,4105.641,4068.2051,4096.4103,4160.5128,4021.5385
4165.1282,4081.5385,4108.2051,4308.7179,4082.5641,4091.2821,4078.4615,4109.7436,4078.4615,4105.1282,4164.1026,4016.4103
4157.4359,4070.7692,4103.5897,4291.7949,4078.9744,4097.9487,4080,4103.0769,4070.7692,4097.4359,4154.8718,4007.6923
4153.3333,4058.9744,4101.0256,4290.7692,4056.4103,4107.6923,4080,4096.9231,4063.0769,4092.8205,4149.2308,4010.7692
4146.1538,4056.9231,4100,4302.0513,4069.2308,4118.4615,4090.2564,4098.4615,4069.7436,4091.7949,4154.8718,4008.7179
4138.4615,4064.1026,4091.7949,4294.359,4091.7949,4121.0256,4094.359,4095.8974,4066.6667,4086.1538,4147.1795,4005.641
4142.5641,4058.9744,4087.1795,4286.1538,4077.9487,4116.9231,4085.1282,4085.641,4053.3333,4086.6667,4135.8974,4011.7949
4140.5128,4040.5128,4087.1795,4288.7179,4070.2564,4112.8205,4074.8718,4073.8462,4047.6923,4085.641,4135.8974,4011.7949
4141.0256,4048.2051,4089.7436,4292.3077,4083.5897,4110.2564,4074.8718,4070.7692,4052.8205,4086.6667,4141.5385,4007.6923
4163.0769,4077.4359,4098.9744,4302.5641,4086.6667,4113.8462,4082.0513,4078.9744,4061.5385,4095.8974,4143.0769,4015.3846
4178.9744,4084.6154,4107.1795,4318.4615,4080,4119.4872,4082.5641,4086.6667,4062.0513,4096.4103,4137.4359,4014.8718
4174.8718,4076.9231,4107.6923,4321.0256,4082.5641,4119.4872,4077.9487,4090.2564,4066.1538,4092.3077,4148.7179,4005.1282
4174.359,4074.359,4105.641,4309.2308,4089.2308,4115.3846,4079.4872,4088.7179,4073.3333,4093.3333,4160.5128,4006.6667
4174.8718,4070.7692,4105.1282,4304.1026,4084.1026,4113.8462,4078.9744,4078.4615,4066.6667,4093.8462,4150.2564,4010.2564
4171.7949,4066.6667,4107.6923,4315.8974,4072.8205,4111.7949,4069.7436,4072.3077,4057.9487,4091.2821,4140,4001.5385
4169.7436,4062.5641,4103.0769,4322.5641,4070.7692,4105.641,4063.0769,4070.7692,4052.8205,4085.1282,4135.8974,3987.6923
4168.2051,4067.6923,4095.8974,4305.1282,4076.9231,4108.7179,4070.2564,4071.7949,4055.8974,4080.5128,4131.2821,3993.8462
4165.1282,4070.7692,4096.9231,4288.2051,4080.5128,4117.4359,4082.0513,4077.9487,4065.1282,4082.0513,4132.3077,4001.5385
4154.359,4054.8718,4097.4359,4297.9487,4063.0769,4120,4089.7436,4080.5128,4067.6923,4083.5897,4132.3077,3991.7949
4143.0769,4050.7692,4096.9231,4307.6923,4041.5385,4121.5385,4091.7949,4083.5897,4069.2308,4084.1026,4131.7949,3992.3077
4151.7949,4063.5897,4098.4615,4292.8205,4049.2308,4113.8462,4082.0513,4080.5128,4069.2308,4083.0769,4129.7436,4007.6923
4170.7692,4067.6923,4096.4103,4286.6667,4067.1795,4101.0256,4069.2308,4067.1795,4062.5641,4083.0769,4121.5385,4012.8205
4167.1795,4062.5641,4094.359,4300,4064.6154,4109.2308,4070.2564,4060.5128,4062.5641,4083.0769,4116.4103,3994.359
4157.9487,4069.2308,4095.8974,4300,4063.0769,4121.5385,4077.4359,4066.6667,4074.359,4084.1026,4129.7436,3982.5641
4170.7692,4084.6154,4100,4303.5897,4071.2821,4116.9231,4076.4103,4074.359,4078.9744,4087.6923,4142.5641,4000
4178.9744,4096.4103,4109.7436,4327.6923,4064.1026,4116.4103,4078.4615,4084.6154,4078.9744,4088.7179,4144.6154,4015.8974
4177.9487,4102.5641,4119.4872,4330.7692,4068.2051,4129.7436,4091.7949,4102.5641,4087.1795,4089.7436,4150.7692,4017.4359
4177.4359,4088.7179,4114.359,4317.4359,4076.9231,4134.8718,4100,4107.6923,4089.7436,4090.2564,4149.7436,4018.4615
4160,4065.641,4103.0769,4318.4615,4064.1026,4125.641,4091.7949,4089.7436,4074.359,4080,4126.1538,4001.5385
4140,4070.7692,4103.0769,4321.0256,4064.1026,4119.4872,4082.0513,4076.9231,4067.1795,4071.2821,4115.3846,3984.1026
4153.8462,4094.8718,4107.6923,4317.4359,4075.3846,4117.9487,4084.1026,4075.8974,4075.8974,4077.4359,4131.2821,4006.1538
4172.3077,4101.0256,4107.1795,4320.5128,4075.8974,4118.9744,4089.7436,4072.8205,4077.4359,4081.5385,4135.3846,4020.5128
4154.359,4082.5641,4103.5897,4318.4615,4063.0769,4117.9487,4084.6154,4066.1538,4068.2051,4071.2821,4120.5128,3999.4872
4135.3846,4067.1795,4100.5128,4307.1795,4057.9487,4112.8205,4076.4103,4067.6923,4061.5385,4068.7179,4113.8462,3994.359
4152.8205,4078.9744,4100.5128,4302.0513,4074.359,4119.4872,4082.5641,4081.5385,4069.7436,4080.5128,4124.6154,4015.8974
4164.6154,4091.2821,4099.4872,4293.3333,4074.8718,4128.7179,4090.7692,4087.1795,4074.359,4081.5385,4127.6923,4018.9744
4158.9744,4085.641,4105.1282,4291.2821,4055.3846,4126.1538,4091.2821,4084.1026,4070.7692,4082.0513,4123.0769,4013.3333
4164.1026,4090.2564,4113.3333,4304.6154,4069.2308,4131.7949,4093.8462,4088.2051,4077.4359,4089.7436,4131.2821,4023.0769
4162.0513,4095.8974,4110.2564,4303.5897,4084.1026,4142.5641,4096.4103,4092.3077,4077.4359,4089.7436,4134.359,4019.4872
4148.2051,4087.1795,4104.1026,4294.8718,4054.359,4137.4359,4097.4359,4090.2564,4071.2821,4089.2308,4125.1282,4011.7949
4152.8205,4080.5128,4107.6923,4292.3077,4033.3333,4128.7179,4103.0769,4093.3333,4071.2821,4092.8205,4124.1026,4018.4615
4165.641,4081.5385,4107.6923,4288.2051,4058.4615,4137.4359,4109.2308,4096.9231,4075.8974,4095.3846,4136.4103,4026.1538
4162.5641,4088.2051,4102.0513,4292.3077,4078.9744,4150.2564,4108.2051,4094.359,4077.9487,4097.4359,4142.5641,4028.7179
4162.0513,4093.3333,4108.7179,4309.2308,4075.3846,4148.2051,4105.1282,4095.3846,4080,4102.5641,4140.5128,4028.7179
4176.4103,4099.4872,4124.1026,4322.5641,4067.1795,4144.1026,4106.6667,4103.5897,4091.7949,4112.8205,4151.7949,4037.4359
4177.9487,4102.5641,4123.0769,4313.8462,4067.1795,4141.0256,4106.1538,4105.1282,4101.0256,4116.9231,4163.5897,4045.1282
4157.4359,4093.3333,4106.6667,4287.1795,4064.1026,4133.8462,4098.4615,4096.9231,4091.2821,4107.6923,4155.8974,4024.1026
4144.1026,4079.4872,4100.5128,4277.9487,4036.9231,4126.6667,4091.2821,4090.7692,4075.8974,4101.5385,4143.5897,3997.4359
4150.2564,4073.3333,4104.6154,4291.7949,4028.2051,4130.7692,4093.8462,4085.641,4074.8718,4099.4872,4134.8718,4004.6154
4155.3846,4076.9231,4103.0769,4291.7949,4061.0256,4140.5128,4099.4872,4082.0513,4076.4103,4102.5641,4134.8718,4017.9487
4143.5897,4077.9487,4101.5385,4281.0256,4074.359,4136.9231,4102.0513,4082.5641,4072.8205,4108.7179,4144.6154,4013.3333
4142.5641,4075.8974,4104.6154,4281.0256,4045.641,4131.7949,4100,4086.6667,4074.8718,4108.7179,4145.1282,4018.4615
4161.0256,4078.9744,4107.6923,4283.0769,4033.3333,4133.8462,4095.8974,4089.2308,4078.4615,4102.5641,4140.5128,4034.359
4157.4359,4079.4872,4100.5128,4275.3846,4048.2051,4126.6667,4093.3333,4082.0513,4075.3846,4097.9487,4142.0513,4032.3077
4142.5641,4075.8974,4096.9231,4268.2051,4040,4120,4095.8974,4083.0769,4080.5128,4101.0256,4149.2308,4023.0769
4146.6667,4071.7949,4100.5128,4266.6667,4029.7436,4127.6923,4095.3846,4092.8205,4087.6923,4101.5385,4147.1795,4027.1795
4145.641,4073.8462,4094.359,4268.7179,4043.5897,4131.2821,4089.2308,4091.2821,4082.0513,4097.9487,4139.4872,4032.3077
4148.7179,4087.1795,4093.3333,4272.3077,4064.6154,4128.7179,4094.359,4093.8462,4086.6667,4102.5641,4147.1795,4042.5641
4160,4087.6923,4098.4615,4263.5897,4051.7949,4123.0769,4100,4098.4615,4089.7436,4103.5897,4150.7692,4052.3077
4149.2308,4078.4615,4095.8974,4249.2308,4034.8718,4117.4359,4092.3077,4086.6667,4077.4359,4098.9744,4135.3846,4053.3333
4145.1282,4080,4096.9231,4256.9231,4037.9487,4118.4615,4087.6923,4078.4615,4073.8462,4101.5385,4131.7949,4060
4158.4615,4087.6923,4106.1538,4266.1538,4026.6667,4119.4872,4091.2821,4086.1538,4082.0513,4105.1282,4144.6154,4066.1538
4154.359,4089.2308,4101.5385,4257.4359,4035.3846,4118.4615,4088.2051,4090.2564,4080,4098.9744,4141.5385,4056.9231
4132.8205,4082.0513,4084.6154,4250.2564,4070.7692,4120,4084.6154,4088.7179,4068.2051,4089.7436,4124.6154,4032.3077
4134.359,4082.0513,4088.2051,4255.3846,4065.641,4124.6154,4089.7436,4096.4103,4072.8205,4097.4359,4131.7949,4033.3333
4150.7692,4088.7179,4099.4872,4255.8974,4026.6667,4126.1538,4093.3333,4107.1795,4086.1538,4106.1538,4153.8462,4051.2821
4138.9744,4079.4872,4086.6667,4242.5641,4029.2308,4116.9231,4085.1282,4096.9231,4072.3077,4091.7949,4140.5128,4033.3333
4127.1795,4072.3077,4073.8462,4234.359,4050.7692,4111.7949,4078.9744,4081.0256,4052.3077,4083.5897,4114.359,4017.9487
4134.359,4081.0256,4082.0513,4235.3846,4040,4117.4359,4087.1795,4087.6923,4060.5128,4095.3846,4123.5897,4036.4103
4138.4615,4085.641,4088.2051,4237.9487,4038.9744,4116.4103,4094.359,4103.5897,4075.3846,4104.1026,4142.5641,4041.0256
4125.1282,4090.7692,4081.5385,4236.9231,4054.8718,4121.0256,4093.3333,4098.9744,4070.2564,4098.4615,4137.4359,4022.5641
4110.7692,4103.0769,4086.1538,4241.0256,4055.8974,4129.7436,4090.7692,4082.0513,4064.1026,4093.3333,4125.641,4026.1538
4122.0513,4100.5128,4095.8974,4254.359,4042.0513,4117.4359,4089.2308,4082.5641,4073.8462,4093.3333,4131.7949,4045.1282
4131.7949,4089.7436,4085.641,4249.7436,4040.5128,4102.5641,4084.1026,4087.1795,4075.8974,4085.641,4134.8718,4036.4103
4131.2821,4101.0256,4076.9231,4235.8974,4038.9744,4109.7436,4084.1026,4085.1282,4067.6923,4080.5128,4125.641,4027.1795
4132.3077,4104.1026,4087.6923,4238.4615,4027.6923,4119.4872,4089.2308,4087.1795,4074.8718,4083.0769,4129.7436,4035.3846
4125.641,4082.5641,4093.3333,4250.2564,4035.8974,4118.4615,4089.7436,4090.7692,4086.1538,4089.2308,4140.5128,4030.7692
4120.5128,4087.1795,4084.6154,4252.3077,4060.5128,4118.4615,4085.1282,4091.2821,4080,4092.8205,4138.4615,4028.7179
4132.8205,4116.4103,4081.0256,4242.5641,4064.6154,4115.3846,4083.5897,4093.3333,4072.8205,4091.7949,4138.4615,4037.9487
4138.4615,4109.2308,4089.7436,4242.5641,4043.0769,4118.9744,4091.7949,4112.8205,4084.6154,4095.8974,4151.7949,4035.3846
4114.8718,4079.4872,4096.4103,4253.3333,4041.0256,4127.6923,4093.8462,4129.2308,4094.8718,4101.0256,4156.9231,4026.6667
4111.7949,4094.359,4093.8462,4256.9231,4053.8462,4125.1282,4090.7692,4123.5897,4087.6923,4095.3846,4145.1282,4031.7949
4136.4103,4131.2821,4096.4103,4249.2308,4049.7436,4124.1026,4092.8205,4118.9744,4085.1282,4092.3077,4138.4615,4048.7179
4131.2821,4120,4102.0513,4248.7179,4042.5641,4128.7179,4091.7949,4124.6154,4089.2308,4093.8462,4136.9231,4057.9487
4110.2564,4086.6667,4095.8974,4247.1795,4060,4129.2308,4088.2051,4117.4359,4082.5641,4089.2308,4125.1282,4048.2051
4116.4103,4104.1026,4094.8718,4235.8974,4085.641,4127.1795,4090.2564,4108.2051,4081.5385,4087.1795,4120.5128,4047.6923
4123.5897,4126.6667,4103.0769,4237.4359,4065.1282,4122.0513,4090.2564,4116.4103,4090.7692,4091.7949,4129.2308,4057.4359
4105.641,4104.1026,4095.8974,4242.5641,4038.4615,4112.8205,4085.641,4121.5385,4088.2051,4090.7692,4133.8462,4041.0256
4102.5641,4098.4615,4083.0769,4233.3333,4058.9744,4110.7692,4086.1538,4115.8974,4080.5128,4091.2821,4130.2564,4024.1026
4112.3077,4119.4872,4085.641,4227.1795,4076.9231,4115.8974,4091.2821,4117.4359,4083.5897,4094.8718,4131.7949,4028.7179
4104.1026,4118.9744,4087.6923,4236.4103,4059.4872,4113.8462,4092.8205,4129.2308,4087.1795,4091.7949,4137.4359,4025.641
4093.3333,4102.0513,4076.4103,4236.9231,4040,4105.1282,4087.1795,4126.6667,4070.7692,4082.5641,4123.5897,4011.7949
4097.4359,4104.1026,4071.7949,4226.1538,4040.5128,4103.5897,4076.4103,4110.7692,4055.8974,4079.4872,4111.7949,4007.1795
4107.1795,4113.3333,4076.4103,4227.6923,4047.6923,4106.6667,4072.3077,4109.7436,4061.0256,4080.5128,4123.0769,4000
4109.7436,4112.8205,4076.9231,4231.7949,4058.4615,4105.1282,4075.3846,4110.2564,4065.641,4085.641,4132.3077,3997.9487
4109.2308,4116.4103,4080,4225.1282,4067.6923,4102.0513,4076.4103,4104.1026,4070.7692,4094.8718,4135.8974,4020.5128
4107.1795,4117.4359,4081.5385,4223.0769,4065.1282,4104.1026,4080,4108.7179,4076.9231,4091.2821,4140.5128,4032.8205
4099.4872,4112.3077,4073.8462,4226.6667,4045.641,4103.0769,4083.0769,4114.359,4067.6923,4080.5128,4128.7179,4013.3333
4095.3846,4098.9744,4068.7179,4221.5385,4028.7179,4099.4872,4078.9744,4111.7949,4057.9487,4080,4112.3077,4010.7692
4092.8205,4081.5385,4068.7179,4217.4359,4041.0256,4097.4359,4076.4103,4107.1795,4058.4615,4084.1026,4111.7949,4028.2051
4091.7949,4083.0769,4067.6923,4229.2308,4051.7949,4097.9487,4076.4103,4107.1795,4060,4082.0513,4120.5128,4029.7436
4101.0256,4101.0256,4074.8718,4242.5641,4043.0769,4096.9231,4075.8974,4110.7692,4067.1795,4082.0513,4124.6154,4031.2821
4110.7692,4107.1795,4084.1026,4243.0769,4052.3077,4097.9487,4078.9744,4115.3846,4082.0513,4089.2308,4130.7692,4050.7692
4108.2051,4100,4082.5641,4239.4872,4077.4359,4104.1026,4078.9744,4114.359,4087.6923,4093.8462,4136.9231,4065.1282
4104.6154,4093.3333,4077.9487,4231.7949,4072.3077,4103.5897,4074.8718,4111.7949,4080.5128,4090.2564,4128.7179,4061.5385
4113.8462,4093.3333,4080.5128,4225.1282,4065.641,4103.5897,4085.1282,4121.5385,4084.6154,4093.3333,4121.5385,4054.8718
4119.4872,4096.4103,4084.1026,4226.6667,4074.359,4110.7692,4100.5128,4135.3846,4092.3077,4101.0256,4128.7179,4047.6923
4112.8205,4092.8205,4087.6923,4233.3333,4073.3333,4113.3333,4100,4131.7949,4082.5641,4100,4127.6923,4039.4872
4106.6667,4086.1538,4088.2051,4232.8205,4081.0256,4115.3846,4100,4122.0513,4073.3333,4094.8718,4122.0513,4035.3846
4101.0256,4086.1538,4084.6154,4226.1538,4084.6154,4120,4106.1538,4121.5385,4075.8974,4091.7949,4127.6923,4029.2308
4107.1795,4096.9231,4092.8205,4229.2308,4078.9744,4122.0513,4106.1538,4123.5897,4087.6923,4098.4615,4135.3846,4037.4359
4120,4107.6923,4099.4872,4233.3333,4095.8974,4118.9744,4102.5641,4116.9231,4096.9231,4101.5385,4137.9487,4053.3333
4128.2051,4111.7949,4090.7692,4225.641,4105.1282,4116.9231,4097.4359,4107.1795,4099.4872,4097.4359,4142.0513,4048.2051
4133.3333,4117.4359,4091.7949,4226.1538,4081.0256,4116.9231,4092.8205,4104.1026,4102.0513,4098.9744,4148.2051,4038.9744
4131.2821,4121.5385,4102.5641,4241.5385,4073.8462,4116.9231,4096.9231,4099.4872,4102.0513,4100.5128,4141.0256,4044.6154
4126.1538,4127.1795,4100,4249.7436,4090.2564,4123.5897,4108.7179,4096.9231,4095.8974,4096.9231,4125.1282,4041.0256
4122.0513,4125.1282,4087.6923,4237.4359,4083.0769,4124.6154,4109.7436,4101.5385,4085.1282,4088.2051,4113.8462,4020
4120,4115.3846,4087.1795,4228.2051,4071.2821,4121.0256,4105.1282,4103.5897,4081.5385,4088.2051,4115.3846,4018.9744
4116.4103,4114.8718,4093.3333,4233.8462,4089.7436,4129.7436,4109.7436,4102.5641,4083.0769,4096.4103,4121.0256,4031.7949
4108.2051,4114.359,4094.359,4232.8205,4098.4615,4138.4615,4112.8205,4100,4074.8718,4098.9744,4115.3846,4024.1026
4120,4120.5128,4098.9744,4227.1795,4094.359,4135.3846,4110.7692,4101.0256,4075.3846,4101.0256,4118.4615,4022.5641
4144.1026,4138.9744,4105.641,4233.3333,4105.1282,4130.7692,4107.6923,4106.1538,4086.6667,4103.0769,4127.1795,4044.6154
4146.6667,4145.1282,4108.7179,4242.5641,4093.8462,4129.2308,4105.641,4101.0256,4089.2308,4106.1538,4117.9487,4048.7179
4140,4124.1026,4111.2821,4243.5897,4068.2051,4127.6923,4105.641,4097.4359,4093.8462,4113.8462,4115.8974,4033.8462
4135.8974,4108.7179,4111.2821,4235.8974,4086.1538,4127.6923,4106.6667,4104.1026,4101.5385,4116.9231,4129.2308,4030.2564
4132.8205,4120.5128,4107.6923,4237.4359,4110.2564,4127.1795,4106.6667,4103.5897,4096.4103,4111.7949,4125.641,4036.9231
4141.0256,4129.7436,4113.3333,4256.4103,4078.9744,4130.2564,4108.7179,4102.5641,4094.8718,4111.7949,4121.0256,4041.5385
4141.0256,4116.9231,4121.5385,4264.6154,4057.9487,4132.3077,4113.3333,4112.3077,4102.5641,4115.8974,4131.2821,4045.641
4131.2821,4107.1795,4116.4103,4252.3077,4089.7436,4131.2821,4110.2564,4114.359,4098.9744,4115.3846,4129.2308,4055.8974
4136.9231,4114.8718,4111.2821,4249.7436,4094.8718,4131.2821,4104.1026,4106.1538,4092.3077,4113.8462,4120.5128,4059.4872
4149.7436,4120,4117.4359,4263.0769,4070.2564,4132.8205,4111.2821,4114.8718,4102.5641,4120,4128.7179,4061.0256
4153.8462,4120,4122.5641,4263.5897,4086.1538,4135.3846,4123.5897,4127.1795,4108.2051,4126.1538,4129.2308,4069.2308
4155.8974,4122.0513,4119.4872,4261.5385,4106.6667,4132.8205,4121.0256,4120.5128,4096.9231,4126.6667,4114.8718,4073.3333
4157.9487,4116.4103,4118.4615,4272.8205,4088.2051,4128.7179,4112.8205,4124.1026,4097.9487,4128.2051,4124.6154,4076.4103
4147.6923,4101.5385,4111.2821,4270.2564,4077.9487,4126.6667,4111.7949,4133.3333,4102.5641,4124.1026,4136.4103,4067.1795
4138.4615,4096.4103,4102.0513,4257.9487,4089.7436,4130.7692,4114.359,4122.5641,4095.8974,4115.8974,4123.5897,4052.8205
4145.1282,4109.7436,4106.6667,4268.7179,4090.7692,4137.4359,4117.9487,4117.4359,4102.5641,4117.4359,4122.0513,4052.3077
4147.6923,4114.8718,4117.4359,4284.6154,4083.0769,4136.4103,4121.5385,4129.7436,4110.7692,4123.5897,4133.8462,4054.359
4144.1026,4116.9231,4121.0256,4287.6923,4087.6923,4132.3077,4121.0256,4135.8974,4115.8974,4126.6667,4143.5897,4064.1026
4151.2821,4120,4120,4291.2821,4091.7949,4125.1282,4111.2821,4124.1026,4124.6154,4124.6154,4152.8205,4073.3333
4161.5385,4107.6923,4120,4286.6667,4090.2564,4120,4103.5897,4115.3846,4122.5641,4125.1282,4152.8205,4061.0256
4171.2821,4108.2051,4124.1026,4280.5128,4094.8718,4128.2051,4111.7949,4123.5897,4118.4615,4132.3077,4148.7179,4056.9231
4171.7949,4122.5641,4128.7179,4286.1538,4100,4137.9487,4123.0769,4129.7436,4121.0256,4132.3077,4148.7179,4060
4166.6667,4127.1795,4133.3333,4289.2308,4100.5128,4138.9744,4123.0769,4129.2308,4118.9744,4133.3333,4147.1795,4059.4872
4167.1795,4127.6923,4141.0256,4284.1026,4097.9487,4134.359,4124.6154,4133.8462,4117.4359,4144.1026,4145.641,4073.3333
4156.4103,4120,4131.2821,4269.7436,4097.4359,4133.8462,4124.1026,4134.359,4113.3333,4142.0513,4144.1026,4070.2564
4144.6154,4107.6923,4115.3846,4260.5128,4085.641,4135.8974,4121.0256,4128.7179,4101.5385,4125.1282,4137.9487,4049.2308
4164.1026,4115.8974,4130.7692,4277.4359,4081.5385,4148.2051,4135.8974,4144.1026,4108.7179,4133.3333,4145.1282,4067.6923
4188.2051,4143.0769,4158.4615,4301.0256,4116.4103,4172.8205,4158.9744,4171.7949,4143.0769,4162.0513,4173.8462,4105.1282
4185.1282,4158.9744,4164.1026,4301.0256,4146.1538,4179.4872,4161.0256,4179.4872,4161.0256,4170.2564,4190.2564,4107.1795
4188.2051,4163.0769,4161.5385,4291.7949,4135.8974,4168.2051,4145.641,4173.3333,4155.8974,4166.6667,4186.1538,4101.5385
4208.2051,4165.1282,4169.2308,4304.1026,4134.359,4169.7436,4139.4872,4175.8974,4166.1538,4174.8718,4196.4103,4113.8462
4209.2308,4162.5641,4172.3077,4315.3846,4152.8205,4175.8974,4145.1282,4173.8462,4180,4176.9231,4208.2051,4116.9231
4203.5897,4170.7692,4164.6154,4314.359,4131.2821,4164.6154,4146.1538,4166.6667,4171.7949,4170.2564,4197.4359,4109.2308
4197.9487,4163.5897,4158.9744,4321.0256,4096.9231,4152.3077,4143.0769,4166.6667,4157.9487,4163.0769,4183.0769,4094.8718
4176.9231,4133.8462,4151.7949,4320.5128,4116.9231,4156.4103,4146.6667,4162.0513,4152.8205,4155.8974,4175.8974,4076.9231
4171.7949,4141.0256,4144.6154,4300,4152.3077,4165.641,4154.359,4160,4154.8718,4155.8974,4173.8462,4078.9744
4187.6923,4165.641,4143.5897,4288.2051,4138.4615,4166.6667,4158.9744,4166.6667,4154.359,4158.9744,4172.3077,4092.8205
4195.3846,4164.1026,4150.2564,4300.5128,4111.2821,4165.1282,4164.6154,4175.3846,4160.5128,4161.0256,4177.9487,4102.0513
4188.2051,4159.4872,4153.8462,4310.2564,4129.2308,4161.0256,4163.5897,4176.9231,4164.6154,4163.5897,4181.0256,4105.641
4178.9744,4156.9231,4151.2821,4315.8974,4140,4153.3333,4154.8718,4165.1282,4155.3846,4160.5128,4175.8974,4087.6923
4186.1538,4149.2308,4157.9487,4327.6923,4114.359,4155.8974,4154.8718,4164.6154,4159.4872,4162.5641,4179.4872,4081.0256
4190.2564,4151.2821,4162.5641,4324.6154,4112.8205,4158.4615,4155.3846,4166.1538,4168.2051,4166.1538,4182.5641,4102.5641
4182.5641,4164.1026,4150.7692,4322.0513,4136.4103,4155.8974,4151.2821,4153.8462,4160,4163.5897,4180.5128,4105.641
4182.5641,4160.5128,4145.641,4337.4359,4122.5641,4162.5641,4151.7949,4151.2821,4154.359,4162.5641,4177.4359,4097.9487
4181.5385,4146.1538,4151.2821,4334.359,4100,4159.4872,4154.359,4161.5385,4160.5128,4165.1282,4177.9487,4116.4103
4172.3077,4150.2564,4149.2308,4315.8974,4125.641,4147.6923,4153.3333,4163.0769,4163.0769,4166.1538,4189.7436,4133.3333
4172.8205,4152.3077,4145.641,4321.0256,4128.2051,4155.3846,4151.7949,4164.1026,4162.0513,4164.6154,4198.4615,4127.6923
4180,4141.0256,4151.7949,4330.2564,4096.4103,4162.5641,4154.8718,4176.4103,4164.6154,4166.6667,4196.9231,4130.2564
4184.1026,4144.1026,4153.8462,4314.359,4107.1795,4156.4103,4158.4615,4175.8974,4160.5128,4164.6154,4195.8974,4142.0513
4185.641,4160,4149.2308,4302.0513,4129.2308,4156.4103,4157.4359,4168.2051,4151.2821,4162.5641,4194.8718,4141.0256
4190.2564,4166.1538,4153.8462,4311.7949,4126.6667,4158.9744,4155.8974,4177.4359,4153.8462,4171.2821,4195.8974,4140.5128
4191.2821,4164.1026,4158.9744,4312.3077,4129.2308,4152.3077,4154.359,4177.4359,4154.359,4173.3333,4191.2821,4141.0256
4183.0769,4155.3846,4153.8462,4292.8205,4115.8974,4149.2308,4153.3333,4165.1282,4145.1282,4164.1026,4179.4872,4133.8462
4170.7692,4145.641,4148.7179,4283.0769,4089.2308,4149.2308,4152.8205,4163.5897,4137.4359,4156.9231,4172.8205,4123.5897
4156.9231,4145.1282,4145.1282,4286.1538,4102.5641,4146.6667,4153.3333,4164.1026,4133.3333,4153.3333,4165.1282,4102.0513
4156.4103,4156.9231,4143.0769,4288.2051,4117.9487,4152.8205,4157.4359,4168.7179,4139.4872,4157.9487,4159.4872,4092.3077
4169.2308,4163.0769,4147.1795,4289.2308,4106.1538,4156.9231,4159.4872,4173.8462,4150.2564,4164.6154,4168.7179,4104.6154
4167.6923,4143.5897,4146.6667,4282.0513,4101.5385,4147.1795,4148.7179,4160.5128,4146.6667,4163.5897,4167.6923,4098.9744
4160,4132.8205,4142.0513,4270.7692,4102.5641,4146.6667,4143.0769,4145.641,4143.0769,4163.0769,4157.4359,4085.641
4169.7436,4152.3077,4144.1026,4272.8205,4105.641,4157.9487,4151.7949,4148.7179,4148.7179,4164.6154,4166.6667,4091.2821
4177.4359,4168.2051,4143.5897,4284.1026,4120.5128,4157.4359,4151.7949,4155.8974,4151.2821,4162.0513,4181.5385,4096.4103
4166.1538,4162.5641,4135.3846,4282.0513,4120,4147.6923,4140,4159.4872,4148.2051,4159.4872,4176.9231,4093.3333
4162.0513,4161.5385,4135.8974,4278.9744,4111.7949,4149.2308,4137.9487,4161.5385,4147.1795,4164.6154,4169.2308,4097.4359
4163.5897,4167.6923,4145.641,4296.4103,4111.2821,4156.9231,4148.7179,4164.1026,4153.3333,4169.2308,4180.5128,4096.4103
4153.8462,4156.9231,4138.9744,4292.3077,4089.7436,4146.1538,4149.2308,4162.0513,4149.7436,4165.1282,4182.0513,4090.7692
4158.4615,4150.2564,4126.1538,4262.0513,4086.6667,4137.9487,4140.5128,4152.8205,4135.8974,4156.4103,4167.6923,4098.4615
4163.0769,4167.6923,4127.1795,4252.3077,4119.4872,4147.6923,4136.9231,4147.6923,4130.7692,4148.2051,4170.2564,4093.8462
4144.6154,4178.9744,4132.8205,4262.5641,4113.3333,4153.3333,4139.4872,4150.7692,4129.2308,4150.7692,4175.3846,4071.2821
4143.5897,4171.2821,4139.4872,4266.1538,4084.6154,4146.6667,4140,4154.359,4130.2564,4158.4615,4167.1795,4087.1795
4160.5128,4167.1795,4141.0256,4262.5641,4090.7692,4136.9231,4131.7949,4148.7179,4130.7692,4151.7949,4156.9231,4116.4103
4157.9487,4172.8205,4134.8718,4258.9744,4108.2051,4136.4103,4124.6154,4143.0769,4125.1282,4144.6154,4159.4872,4111.2821
4149.2308,4168.2051,4133.8462,4251.2821,4093.8462,4143.5897,4124.1026,4147.6923,4127.6923,4151.2821,4168.2051,4109.2308
4146.1538,4151.7949,4130.7692,4251.7949,4087.6923,4147.6923,4125.641,4151.2821,4132.8205,4150.2564,4163.0769,4117.4359
4145.641,4153.8462,4122.5641,4256.9231,4114.8718,4146.6667,4126.6667,4150.7692,4127.1795,4142.0513,4148.7179,4113.3333
4146.6667,4163.0769,4117.9487,4247.1795,4113.3333,4146.1538,4131.7949,4155.8974,4123.5897,4141.5385,4151.7949,4107.6923
4152.3077,4162.5641,4123.0769,4241.5385,4085.641,4143.0769,4134.8718,4165.641,4133.8462,4146.6667,4168.2051,4110.2564
4165.1282,4163.0769,4132.8205,4258.4615,4093.3333,4139.4872,4133.3333,4166.6667,4142.5641,4148.7179,4170.7692,4110.7692
4164.1026,4156.9231,4136.4103,4259.4872,4102.5641,4139.4872,4133.8462,4159.4872,4135.3846,4148.2051,4165.1282,4095.8974
4153.3333,4149.2308,4134.359,4237.9487,4091.2821,4139.4872,4133.8462,4156.4103,4133.3333,4154.8718,4170.7692,4087.1795
4159.4872,4154.8718,4133.3333,4231.7949,4091.2821,4143.0769,4132.8205,4160.5128,4144.6154,4162.0513,4176.9231,4093.8462
4168.2051,4157.4359,4133.8462,4236.9231,4087.1795,4146.1538,4136.4103,4163.5897,4153.8462,4158.4615,4171.7949,4092.8205
4152.8205,4146.1538,4127.6923,4229.2308,4083.5897,4145.641,4138.9744,4162.0513,4146.6667,4150.7692,4165.641,4075.8974
4130.2564,4137.4359,4120,4217.4359,4097.4359,4145.1282,4130.2564,4150.7692,4132.3077,4146.1538,4155.3846,4060
4136.4103,4143.0769,4119.4872,4218.9744,4099.4872,4147.1795,4124.6154,4142.0513,4133.8462,4145.641,4147.6923,4062.5641
4155.8974,4154.359,4117.4359,4223.5897,4088.7179,4145.641,4128.7179,4145.1282,4145.1282,4146.6667,4154.359,4064.1026
4155.8974,4160,4118.4615,4227.6923,4093.3333,4139.4872,4127.1795,4145.1282,4146.1538,4150.7692,4160.5128,4060.5128
4154.359,4164.1026,4131.2821,4233.3333,4105.1282,4140,4123.5897,4141.0256,4145.641,4152.8205,4159.4872,4076.9231
4161.0256,4166.1538,4138.4615,4230.2564,4112.3077,4143.0769,4127.1795,4142.0513,4146.6667,4148.7179,4158.4615,4086.1538
4156.9231,4167.6923,4130.2564,4216.4103,4120.5128,4142.0513,4130.7692,4148.7179,4147.1795,4146.6667,4159.4872,4058.4615
4141.0256,4166.6667,4121.0256,4207.1795,4112.3077,4142.5641,4132.8205,4152.8205,4146.6667,4141.5385,4150.2564,4031.2821
4131.2821,4141.5385,4120,4216.4103,4100,4146.1538,4135.3846,4151.2821,4147.1795,4136.9231,4145.641,4046.6667
4134.359,4111.7949,4118.9744,4218.4615,4111.2821,4148.7179,4130.7692,4149.2308,4144.6154,4142.0513,4156.4103,4065.641
4133.8462,4118.9744,4111.7949,4204.1026,4124.6154,4147.6923,4121.0256,4141.0256,4134.359,4141.5385,4153.3333,4058.4615
4137.9487,4150.2564,4118.4615,4210.2564,4128.2051,4152.3077,4126.1538,4144.6154,4136.4103,4138.9744,4150.2564,4068.7179
4151.7949,4154.8718,4133.3333,4227.1795,4134.8718,4156.4103,4138.4615,4158.9744,4153.8462,4145.1282,4163.5897,4097.4359
4151.7949,4136.4103,4129.7436,4212.3077,4133.3333,4148.2051,4133.3333,4157.9487,4157.9487,4145.1282,4165.1282,4097.4359
4150.2564,4125.641,4127.6923,4197.4359,4115.3846,4143.5897,4121.5385,4122.5641,4157.9487,4143.0769,4146.1538,4027.1795
4146.6667,4127.1795,4122.5641,4186.6667,4117.4359,4143.0769,4126.1538,4122.0513,4152.3077,4143.0769,4133.8462,4014.8718
4147.1795,4128.7179,4117.9487,4181.5385,4118.9744,4142.0513,4124.1026,4113.3333,4149.2308,4136.4103,4127.6923,3994.359
4147.6923,4124.1026,4114.8718,4188.2051,4113.8462,4136.9231,4118.4615,4101.0256,4145.641,4131.2821,4123.0769,3970.2564
4155.3846,4130.2564,4125.641,4203.5897,4109.7436,4134.8718,4126.6667,4106.1538,4153.8462,4141.0256,4126.6667,3965.1282
4169.7436,4141.5385,4138.4615,4215.8974,4112.3077,4140.5128,4135.3846,4118.9744,4167.6923,4154.8718,4134.8718,3964.1026
4164.1026,4127.6923,4137.4359,4210.2564,4108.7179,4141.5385,4128.7179,4117.9487,4169.7436,4153.3333,4125.641,3942.0513
4144.1026,4104.1026,4128.2051,4190.2564,4105.641,4137.4359,4125.1282,4113.8462,4160.5128,4144.6154,4109.2308,3928.2051
4150.7692,4111.7949,4126.6667,4188.7179,4104.1026,4136.9231,4137.4359,4125.1282,4157.9487,4145.1282,4124.6154,3939.4872
4166.6667,4128.2051,4130.7692,4198.9744,4095.8974,4140,4141.5385,4134.359,4154.359,4142.5641,4147.6923,3932.3077
4164.1026,4128.7179,4135.8974,4196.9231,4107.1795,4147.6923,4129.7436,4125.641,4152.3077,4140.5128,4144.6154,3912.3077
4161.0256,4130.2564,4141.0256,4194.359,4113.8462,4145.641,4127.6923,4119.4872,4162.5641,4147.6923,4141.5385,3912.8205
4159.4872,4128.2051,4138.4615,4199.4872,4090.7692,4134.359,4131.7949,4117.4359,4162.0513,4146.6667,4138.9744,3905.1282
4153.8462,4121.0256,4131.7949,4190.7692,4094.8718,4135.8974,4130.2564,4108.7179,4149.7436,4136.4103,4128.2051,3877.9487
4151.7949,4118.4615,4128.2051,4174.8718,4124.6154,4143.0769,4125.1282,4103.5897,4143.0769,4131.7949,4125.641,3863.5897
4147.1795,4123.0769,4130.7692,4180,4114.8718,4139.4872,4127.1795,4114.8718,4152.8205,4138.9744,4123.5897,3871.2821
4139.4872,4125.641,4130.7692,4189.2308,4099.4872,4136.9231,4132.8205,4123.5897,4162.0513,4140.5128,4107.6923,3861.0256
4136.9231,4119.4872,4122.5641,4183.5897,4111.7949,4141.5385,4133.3333,4112.3077,4149.7436,4125.641,4099.4872,3834.359
4142.0513,4125.641,4120.5128,4183.5897,4116.9231,4145.641,4136.4103,4107.6923,4136.4103,4118.4615,4119.4872,3841.5385
4145.1282,4137.9487,4123.5897,4193.8462,4116.4103,4147.6923,4136.9231,4115.3846,4134.359,4119.4872,4128.7179,3856.4103
4138.4615,4131.7949,4117.4359,4197.9487,4108.7179,4145.641,4131.2821,4113.8462,4137.4359,4116.9231,4104.1026,3832.3077
4131.2821,4118.4615,4110.2564,4192.3077,4096.9231,4143.5897,4127.6923,4104.1026,4138.4615,4112.8205,4086.1538,3811.2821
4128.7179,4123.5897,4114.359,4186.6667,4102.5641,4141.0256,4126.1538,4097.4359,4131.7949,4112.8205,4092.3077,3810.7692
4134.8718,4146.1538,4125.641,4193.8462,4113.8462,4138.9744,4126.1538,4100.5128,4134.8718,4121.0256,4099.4872,3803.5897
4123.5897,4144.6154,4122.5641,4195.3846,4110.7692,4142.0513,4124.6154,4096.9231,4140,4122.5641,4087.6923,3801.5385
4100,4121.5385,4103.5897,4173.8462,4093.3333,4136.9231,4117.4359,4075.8974,4121.0256,4115.8974,4065.1282,3785.1282
4103.0769,4114.359,4103.0769,4171.2821,4082.0513,4127.1795,4114.8718,4078.4615,4129.2308,4125.641,4044.1026,3747.6923
4103.0769,4115.3846,4113.8462,4185.641,4095.3846,4126.6667,4115.8974,4097.4359,4155.3846,4132.8205,4034.8718,3744.6154
4091.7949,4117.4359,4103.0769,4172.8205,4116.4103,4132.3077,4113.3333,4094.359,4129.7436,4116.9231,4053.8462,3778.4615
4105.1282,4129.7436,4090.2564,4155.3846,4108.7179,4133.8462,4116.9231,4089.7436,4100.5128,4109.7436,4077.4359,3791.2821
4121.5385,4138.4615,4101.0256,4163.0769,4095.3846,4134.359,4123.5897,4099.4872,4112.3077,4123.5897,4070.7692,3763.5897
4110.7692,4134.8718,4113.3333,4176.9231,4106.1538,4138.9744,4122.5641,4103.0769,4119.4872,4132.8205,4062.5641,3742.5641
4099.4872,4133.3333,4109.2308,4176.9231,4105.641,4139.4872,4122.0513,4099.4872,4114.359,4132.3077,4070.2564,3736.9231
4096.4103,4131.7949,4106.1538,4176.4103,4087.6923,4132.8205,4121.5385,4100.5128,4122.5641,4135.8974,4060.5128,3724.6154
4089.7436,4120.5128,4107.1795,4173.3333,4080.5128,4130.7692,4112.8205,4096.4103,4122.0513,4132.3077,4041.5385,3709.2308
4077.9487,4108.7179,4097.9487,4161.0256,4091.2821,4134.8718,4107.6923,4088.2051,4105.641,4120,4038.4615,3691.2821
4065.1282,4109.7436,4086.1538,4151.7949,4097.9487,4131.7949,4108.2051,4086.6667,4100,4113.8462,4038.9744,3675.8974
4059.4872,4115.3846,4084.1026,4154.359,4077.9487,4116.4103,4103.5897,4084.6154,4105.641,4115.8974,4030.2564,3670.7692
4063.0769,4107.6923,4084.6154,4156.4103,4066.1538,4112.3077,4100,4082.5641,4114.359,4120.5128,4024.6154,3675.8974
4064.6154,4100,4083.5897,4147.6923,4074.8718,4121.0256,4103.5897,4085.641,4118.4615,4122.0513,4025.1282,3674.359
4055.3846,4100,4083.0769,4143.5897,4070.2564,4118.4615,4101.5385,4087.1795,4116.4103,4117.4359,4019.4872,3668.7179
4046.6667,4093.8462,4082.0513,4147.6923,4057.4359,4110.2564,4093.3333,4081.0256,4112.8205,4113.3333,4016.4103,3683.0769
4049.2308,4091.7949,4082.0513,4145.641,4054.359,4107.1795,4095.8974,4083.0769,4106.1538,4116.4103,4013.8462,3697.9487
4049.7436,4095.3846,4081.0256,4143.0769,4056.9231,4105.641,4102.5641,4095.8974,4101.0256,4119.4872,4006.6667,3692.3077
4051.2821,4107.6923,4082.5641,4154.359,4067.6923,4113.3333,4103.5897,4103.0769,4102.0513,4116.9231,4013.3333,3696.4103
4052.8205,4114.359,4085.641,4170.2564,4069.7436,4114.8718,4103.5897,4102.5641,4105.1282,4114.8718,4021.0256,3716.9231
4047.1795,4097.9487,4080,4166.6667,4050.2564,4105.641,4102.0513,4106.1538,4107.1795,4117.9487,4021.0256,3725.1282
4042.5641,4082.0513,4074.8718,4161.0256,4046.6667,4110.7692,4100.5128,4110.7692,4108.2051,4116.9231,4024.1026,3722.0513
4052.3077,4096.4103,4079.4872,4167.6923,4067.6923,4125.641,4103.0769,4106.6667,4110.7692,4113.8462,4026.1538,3729.7436
4063.5897,4124.1026,4084.1026,4172.8205,4074.8718,4123.0769,4102.5641,4102.5641,4116.4103,4114.8718,4027.1795,3743.0769
4056.9231,4120,4081.0256,4167.6923,4053.3333,4106.6667,4095.3846,4100.5128,4114.8718,4115.8974,4035.8974,3745.1282
4045.1282,4101.5385,4076.9231,4159.4872,4037.4359,4100.5128,4089.2308,4093.3333,4109.7436,4117.4359,4040,3747.1795
4048.7179,4105.641,4078.4615,4153.8462,4045.1282,4105.1282,4091.7949,4089.2308,4118.9744,4119.4872,4026.1538,3753.8462
4056.4103,4114.359,4086.1538,4157.4359,4047.6923,4110.7692,4100,4097.9487,4127.1795,4120,4029.2308,3762.0513
4047.1795,4105.1282,4086.6667,4161.0256,4051.2821,4117.9487,4097.9487,4102.5641,4115.3846,4116.4103,4058.9744,3771.2821
4031.2821,4087.6923,4074.359,4148.7179,4056.9231,4116.4103,4089.2308,4096.4103,4102.0513,4108.7179,4062.0513,3767.1795
4038.4615,4084.6154,4072.3077,4140.5128,4047.1795,4105.1282,4091.2821,4103.5897,4109.7436,4107.1795,4043.0769,3763.0769
4051.2821,4092.3077,4078.9744,4149.2308,4043.0769,4101.0256,4096.9231,4117.4359,4118.4615,4112.3077,4045.641,3779.4872
4048.7179,4094.8718,4080.5128,4165.1282,4051.2821,4106.6667,4096.4103,4113.8462,4115.3846,4116.4103,4057.9487,3793.8462
4042.0513,4091.7949,4078.4615,4164.1026,4049.7436,4106.1538,4092.3077,4104.1026,4114.8718,4115.3846,4053.8462,3789.7436
4044.1026,4090.7692,4073.3333,4135.8974,4043.0769,4101.5385,4090.7692,4098.4615,4118.4615,4113.3333,4051.7949,3792.3077
4062.0513,4099.4872,4078.9744,4120,4048.2051,4101.0256,4094.8718,4105.1282,4130.2564,4116.4103,4059.4872,3810.2564
4070.7692,4093.8462,4082.5641,4118.9744,4051.2821,4096.9231,4094.8718,4109.2308,4131.7949,4113.8462,4053.3333,3806.6667
4058.4615,4078.9744,4072.8205,4103.5897,4052.8205,4088.7179,4088.7179,4098.4615,4109.2308,4102.5641,4044.1026,3783.5897
4057.9487,4089.7436,4072.3077,4100.5128,4060.5128,4086.6667,4090.7692,4096.4103,4105.1282,4101.5385,4054.359,3791.7949
4058.4615,4096.4103,4078.4615,4117.9487,4042.5641,4091.7949,4097.4359,4104.1026,4121.5385,4102.5641,4063.5897,3811.7949
4040.5128,4085.641,4075.3846,4124.6154,4028.2051,4101.0256,4103.0769,4107.1795,4123.0769,4097.9487,4052.8205,3801.5385
4037.4359,4096.9231,4073.3333,4130.7692,4052.8205,4106.6667,4110.2564,4116.4103,4117.9487,4096.4103,4051.7949,3794.359
4054.8718,4113.8462,4070.2564,4130.2564,4069.7436,4102.0513,4107.6923,4120,4113.3333,4096.9231,4065.641,3810.7692
4058.4615,4104.6154,4065.641,4111.2821,4059.4872,4098.4615,4094.8718,4104.1026,4110.7692,4097.9487,4070.2564,3824.1026
4050.7692,4090.7692,4073.8462,4114.359,4051.7949,4096.9231,4090.2564,4094.359,4113.8462,4102.5641,4060.5128,3829.2308
4052.8205,4089.7436,4077.9487,4135.3846,4053.8462,4090.7692,4090.7692,4096.4103,4111.2821,4101.5385,4053.8462,3834.359
4059.4872,4096.9231,4069.2308,4133.8462,4049.2308,4089.2308,4089.7436,4097.4359,4108.2051,4096.9231,4071.2821,3842.0513
4064.1026,4096.4103,4070.2564,4130.2564,4052.3077,4102.0513,4094.359,4104.6154,4121.5385,4103.5897,4093.3333,3857.4359
4068.7179,4092.8205,4079.4872,4147.6923,4069.7436,4107.1795,4097.9487,4114.8718,4137.9487,4113.3333,4100.5128,3870.2564
4067.1795,4096.4103,4077.9487,4156.4103,4074.359,4098.4615,4095.8974,4120,4136.4103,4111.7949,4096.4103,3867.6923
4070.2564,4103.0769,4078.9744,4153.8462,4062.5641,4097.9487,4100,4132.3077,4132.3077,4115.3846,4099.4872,3873.3333
4086.6667,4110.2564,4092.3077,4165.1282,4058.4615,4111.7949,4113.8462,4150.7692,4136.4103,4124.6154,4114.8718,3896.9231
4088.2051,4111.2821,4093.8462,4170.7692,4064.1026,4116.4103,4118.9744,4157.9487,4132.8205,4120.5128,4115.8974,3896.9231
4076.9231,4111.2821,4086.6667,4167.6923,4056.4103,4112.8205,4114.359,4156.4103,4128.7179,4113.3333,4097.9487,3885.641
4068.7179,4105.641,4084.6154,4175.3846,4043.0769,4111.7949,4108.7179,4145.641,4131.2821,4107.6923,4086.6667,3896.9231
4066.6667,4102.5641,4078.9744,4173.3333,4051.7949,4109.7436,4102.0513,4130.7692,4126.6667,4102.0513,4097.4359,3903.0769
4079.4872,4113.8462,4076.4103,4161.5385,4069.7436,4110.2564,4098.9744,4134.359,4120.5128,4107.1795,4113.3333,3903.0769
4085.1282,4122.5641,4087.6923,4170.7692,4065.641,4112.8205,4102.5641,4143.0769,4126.6667,4116.9231,4115.3846,3918.4615
4076.4103,4120,4096.9231,4184.6154,4055.8974,4111.2821,4105.641,4138.9744,4139.4872,4119.4872,4117.4359,3934.8718
4074.8718,4116.4103,4089.7436,4171.7949,4063.0769,4104.1026,4096.4103,4129.7436,4140.5128,4115.3846,4119.4872,3930.2564
4084.6154,4126.6667,4088.2051,4163.0769,4057.9487,4096.4103,4088.7179,4125.641,4131.2821,4113.3333,4113.3333,3924.6154
4092.3077,4137.9487,4096.9231,4175.3846,4047.6923,4099.4872,4096.4103,4125.641,4130.2564,4111.7949,4115.3846,3937.9487
4080,4122.0513,4091.2821,4174.359,4067.1795,4105.1282,4098.4615,4116.9231,4127.1795,4103.0769,4119.4872,3939.4872
4065.1282,4111.2821,4086.1538,4167.1795,4093.3333,4107.6923,4098.4615,4114.8718,4126.6667,4098.9744,4117.4359,3934.8718
4073.3333,4129.7436,4092.8205,4169.2308,4094.359,4112.3077,4107.1795,4130.2564,4136.9231,4109.7436,4123.0769,3948.7179
4076.9231,4134.359,4090.7692,4167.1795,4088.7179,4113.3333,4109.2308,4133.8462,4138.4615,4115.3846,4125.1282,3956.4103
4072.8205,4125.1282,4092.3077,4168.7179,4086.6667,4107.1795,4104.1026,4128.7179,4140.5128,4116.9231,4124.1026,3957.9487
4085.1282,4132.8205,4106.6667,4181.0256,4074.8718,4104.6154,4109.7436,4135.3846,4152.8205,4125.1282,4127.1795,3970.7692
4089.2308,4140.5128,4107.6923,4187.1795,4073.8462,4108.7179,4112.8205,4140.5128,4154.359,4126.1538,4127.1795,3979.4872
4070.2564,4134.359,4090.7692,4180.5128,4091.7949,4112.8205,4106.6667,4134.359,4135.8974,4115.3846,4119.4872,3968.7179
4067.1795,4125.641,4083.5897,4174.359,4097.9487,4113.8462,4106.6667,4132.8205,4127.1795,4111.7949,4108.7179,3953.8462
4078.4615,4126.6667,4095.3846,4181.0256,4086.1538,4114.359,4110.7692,4138.9744,4142.5641,4119.4872,4115.8974,3966.1538
4075.3846,4133.3333,4106.6667,4194.359,4067.6923,4108.7179,4107.6923,4135.8974,4148.7179,4121.0256,4127.1795,3983.0769
4075.8974,4132.8205,4101.0256,4193.3333,4070.7692,4105.1282,4098.4615,4129.2308,4140.5128,4120.5128,4121.0256,3980.5128
4085.1282,4124.6154,4095.3846,4185.1282,4095.8974,4114.359,4091.2821,4130.2564,4139.4872,4120.5128,4118.4615,3982.0513
4084.6154,4121.5385,4103.0769,4189.2308,4095.3846,4120.5128,4094.8718,4138.4615,4146.1538,4119.4872,4128.7179,3997.9487
4084.6154,4136.4103,4106.6667,4195.3846,4084.6154,4118.9744,4105.641,4149.7436,4151.2821,4123.0769,4135.8974,4005.641
4090.2564,4146.6667,4101.5385,4191.7949,4090.2564,4114.359,4109.2308,4154.359,4147.1795,4124.1026,4125.1282,4002.5641
4084.1026,4132.3077,4101.0256,4197.4359,4081.5385,4111.2821,4105.1282,4150.7692,4135.3846,4122.5641,4111.7949,4006.6667
4075.8974,4117.9487,4103.0769,4202.5641,4066.1538,4114.359,4108.7179,4150.2564,4130.2564,4118.9744,4119.4872,4004.1026
4079.4872,4129.7436,4100,4196.9231,4078.9744,4122.5641,4118.9744,4149.2308,4132.3077,4117.4359,4132.3077,3998.9744
4097.9487,4153.8462,4105.1282,4200,4080,4127.6923,4123.0769,4149.2308,4141.5385,4127.1795,4133.8462,4020.5128
4111.7949,4151.2821,4116.9231,4201.5385,4063.5897,4122.0513,4114.359,4158.9744,4152.8205,4135.3846,4134.8718,4044.1026
4107.1795,4133.8462,4116.9231,4197.4359,4081.0256,4117.9487,4106.1538,4165.641,4155.3846,4131.7949,4143.0769,4048.2051
4102.0513,4133.8462,4114.8718,4209.7436,4100,4123.0769,4107.6923,4162.0513,4160,4130.2564,4142.0513,4052.8205
4103.5897,4134.359,4121.0256,4222.0513,4082.5641,4120.5128,4107.6923,4154.8718,4161.0256,4128.7179,4130.7692,4053.8462
4102.5641,4124.6154,4120.5128,4207.1795,4076.4103,4111.2821,4102.5641,4145.641,4147.6923,4125.1282,4126.1538,4045.641
4097.9487,4121.5385,4113.3333,4185.641,4087.1795,4112.8205,4101.5385,4133.8462,4136.4103,4121.5385,4120.5128,4041.5385
4097.4359,4129.7436,4117.4359,4183.5897,4081.5385,4117.9487,4106.1538,4126.6667,4143.5897,4118.9744,4114.359,4048.7179
4106.1538,4128.2051,4127.1795,4188.7179,4087.1795,4125.641,4115.8974,4131.2821,4158.4615,4124.6154,4122.0513,4063.0769
4117.4359,4115.8974,4123.5897,4183.0769,4098.4615,4139.4872,4128.7179,4137.4359,4157.9487,4130.2564,4133.3333,4071.7949
4125.1282,4119.4872,4124.1026,4178.9744,4093.8462,4144.1026,4136.9231,4143.0769,4159.4872,4135.3846,4140.5128,4078.4615
4120.5128,4129.2308,4134.359,4189.7436,4091.2821,4134.359,4134.8718,4146.6667,4168.7179,4142.0513,4145.641,4085.641
4118.4615,4125.641,4137.9487,4192.3077,4091.2821,4126.6667,4133.3333,4144.1026,4164.6154,4146.6667,4150.7692,4087.6923
4140.5128,4128.7179,4136.9231,4185.641,4093.8462,4134.359,4138.4615,4146.6667,4164.1026,4149.2308,4162.0513,4094.359
4155.8974,4135.8974,4140,4187.1795,4102.5641,4138.9744,4140.5128,4147.1795,4175.8974,4151.2821,4168.7179,4104.6154
4142.5641,4129.2308,4143.0769,4187.6923,4102.5641,4133.8462,4136.9231,4141.5385,4167.6923,4151.7949,4165.641,4109.7436
4130.2564,4116.4103,4137.9487,4180.5128,4093.8462,4135.3846,4134.359,4136.4103,4148.2051,4146.1538,4167.1795,4106.1538
4135.3846,4112.8205,4133.3333,4177.9487,4102.0513,4143.0769,4134.8718,4131.2821,4150.7692,4138.4615,4163.5897,4094.359
4132.8205,4114.359,4138.9744,4187.1795,4105.641,4146.1538,4136.9231,4128.7179,4165.641,4134.8718,4150.2564,4089.2308
4126.6667,4112.3077,4144.1026,4194.359,4087.1795,4139.4872,4136.9231,4127.1795,4163.0769,4133.8462,4146.1538,4101.0256
4146.1538,4112.3077,4146.1538,4198.4615,4100.5128,4141.0256,4137.9487,4127.6923,4154.8718,4140,4167.6923,4119.4872
4172.3077,4123.5897,4152.3077,4207.6923,4126.6667,4151.2821,4141.5385,4129.7436,4157.4359,4146.6667,4185.1282,4124.1026
4165.1282,4124.1026,4149.2308,4212.8205,4113.8462,4151.7949,4134.8718,4133.3333,4161.0256,4144.6154,4163.5897,4116.4103
4153.3333,4116.9231,4142.0513,4212.8205,4101.0256,4148.2051,4128.7179,4141.5385,4166.6667,4141.0256,4146.1538,4121.0256
4164.6154,4120.5128,4147.6923,4217.9487,4104.6154,4148.2051,4133.8462,4143.5897,4169.7436,4147.1795,4163.0769,4134.359
4171.7949,4125.1282,4150.2564,4214.8718,4100,4144.6154,4135.3846,4134.359,4164.6154,4152.8205,4173.3333,4140
4169.7436,4122.0513,4146.6667,4203.0769,4087.1795,4144.1026,4140,4137.4359,4161.5385,4151.2821,4169.2308,4136.4103
4169.7436,4122.0513,4146.6667,4203.0769,4087.1795,4144.1026,4140,4137.4359,4161.5385,4151.2821,4169.2308,4136.4103
4160.5128,4115.3846,4150.7692,4205.641,4070.2564,4154.359,4155.3846,4152.8205,4165.641,4151.2821,4176.9231,4132.3077
4150.2564,4114.359,4150.7692,4211.2821,4069.7436,4156.4103,4154.359,4149.2308,4162.0513,4152.8205,4178.4615,4132.8205
4150.7692,4121.5385,4142.5641,4200,4092.3077,4146.6667,4143.0769,4133.3333,4146.6667,4145.1282,4158.4615,4130.7692
4157.9487,4129.7436,4144.1026,4193.8462,4104.6154,4152.3077,4151.7949,4132.8205,4143.5897,4142.0513,4157.4359,4129.2308
4160,4136.4103,4153.3333,4201.5385,4096.4103,4159.4872,4156.4103,4133.8462,4149.7436,4148.2051,4172.8205,4132.8205
4155.3846,4132.3077,4147.6923,4202.0513,4096.4103,4150.2564,4139.4872,4121.0256,4143.5897,4141.0256,4165.1282,4128.7179
4155.8974,4129.2308,4141.0256,4198.4615,4098.9744,4148.7179,4138.4615,4117.9487,4143.5897,4131.7949,4151.7949,4125.641
4161.5385,4135.8974,4146.6667,4203.0769,4086.6667,4161.0256,4152.8205,4132.8205,4157.4359,4138.4615,4157.4359,4132.8205
4164.1026,4143.0769,4151.7949,4204.6154,4080.5128,4166.1538,4152.8205,4144.6154,4161.0256,4151.7949,4166.6667,4138.4615
4159.4872,4138.9744,4149.2308,4195.8974,4087.1795,4158.9744,4144.1026,4144.6154,4154.359,4155.8974,4165.1282,4137.9487
4150.2564,4127.6923,4143.5897,4182.0513,4089.2308,4152.3077,4139.4872,4135.8974,4144.6154,4146.6667,4147.6923,4128.2051
4147.6923,4127.6923,4137.4359,4176.4103,4084.6154,4154.359,4136.4103,4130.2564,4136.4103,4141.5385,4137.4359,4120
4146.6667,4127.6923,4129.7436,4175.8974,4085.641,4160.5128,4139.4872,4131.7949,4137.4359,4140.5128,4147.1795,4123.0769
4148.7179,4123.5897,4132.8205,4172.8205,4086.1538,4160,4149.2308,4137.9487,4145.1282,4141.5385,4159.4872,4130.7692
4155.8974,4130.7692,4141.0256,4168.7179,4084.6154,4159.4872,4154.359,4144.1026,4147.1795,4143.0769,4156.4103,4138.4615
4150.7692,4134.8718,4138.9744,4167.1795,4087.1795,4160,4151.7949,4139.4872,4132.8205,4139.4872,4136.4103,4129.7436
4148.7179,4130.7692,4137.9487,4168.2051,4081.5385,4158.9744,4147.1795,4137.9487,4131.7949,4140.5128,4137.9487,4122.0513
4157.4359,4127.1795,4136.9231,4165.641,4079.4872,4161.0256,4142.5641,4138.4615,4144.1026,4142.0513,4153.8462,4133.8462
4157.4359,4129.7436,4134.359,4170.2564,4095.3846,4159.4872,4146.1538,4131.7949,4146.1538,4137.9487,4148.2051,4143.0769
4161.5385,4136.9231,4138.4615,4185.641,4105.641,4156.4103,4151.2821,4130.7692,4149.7436,4139.4872,4145.641,4143.0769
4169.2308,4136.9231,4141.0256,4188.2051,4098.9744,4154.8718,4149.2308,4133.8462,4156.9231,4146.1538,4158.9744,4142.5641
4174.8718,4138.4615,4138.9744,4183.0769,4107.1795,4160,4150.7692,4134.8718,4159.4872,4149.2308,4164.6154,4142.0513
4182.0513,4147.6923,4144.1026,4190.2564,4119.4872,4165.641,4154.359,4141.5385,4161.5385,4153.8462,4161.0256,4145.641
4185.1282,4152.8205,4156.9231,4203.5897,4110.7692,4161.5385,4152.8205,4146.6667,4172.8205,4163.5897,4170.7692,4158.9744
4182.0513,4144.1026,4154.8718,4203.5897,4111.7949,4155.3846,4153.3333,4141.0256,4178.9744,4161.5385,4175.3846,4163.5897
4177.4359,4132.8205,4139.4872,4193.8462,4112.8205,4154.8718,4152.3077,4130.7692,4170.7692,4148.7179,4163.5897,4154.8718
4178.4615,4136.4103,4138.4615,4187.6923,4100,4157.4359,4150.2564,4133.3333,4166.6667,4154.359,4162.0513,4163.5897
4178.4615,4137.9487,4146.1538,4186.6667,4108.2051,4156.4103,4153.3333,4144.6154,4169.7436,4163.0769,4166.6667,4173.3333
4172.3077,4125.1282,4139.4872,4180.5128,4113.8462,4153.8462,4154.8718,4146.1538,4169.7436,4151.2821,4163.5897,4161.0256
4181.5385,4130.2564,4137.4359,4181.5385,4095.8974,4157.4359,4153.8462,4141.5385,4174.8718,4148.2051,4170.2564,4154.8718
4194.8718,4144.1026,4147.1795,4193.8462,4100.5128,4162.5641,4154.8718,4140,4178.4615,4156.4103,4182.0513,4161.5385
4180.5128,4137.9487,4145.1282,4197.4359,4121.0256,4162.5641,4153.8462,4140.5128,4174.8718,4150.2564,4173.3333,4161.0256
4162.0513,4136.4103,4134.8718,4197.9487,4109.2308,4160.5128,4153.8462,4140.5128,4175.8974,4143.5897,4168.2051,4158.9744
4168.7179,4144.1026,4134.359,4195.3846,4096.4103,4160,4151.2821,4135.8974,4177.4359,4151.2821,4174.359,4156.4103
4177.4359,4143.0769,4140,4186.6667,4111.2821,4152.8205,4145.1282,4130.2564,4175.8974,4156.9231,4168.2051,4160.5128
4170.7692,4141.5385,4140.5128,4188.7179,4112.3077,4145.1282,4147.1795,4129.7436,4176.9231,4154.359,4162.5641,4172.3077
4165.641,4144.1026,4138.9744,4197.4359,4106.6667,4148.2051,4153.8462,4131.2821,4179.4872,4154.359,4172.8205,4172.8205
4171.7949,4141.0256,4143.0769,4195.8974,4116.9231,4160.5128,4154.359,4135.3846,4187.6923,4156.4103,4182.5641,4172.3077
4183.5897,4147.6923,4150.2564,4199.4872,4122.5641,4164.1026,4156.9231,4141.5385,4195.8974,4157.9487,4185.1282,4188.7179
4195.3846,4166.1538,4159.4872,4225.1282,4125.641,4162.5641,4160,4146.6667,4199.4872,4161.5385,4192.3077,4195.8974
4187.1795,4160,4156.4103,4228.7179,4127.6923,4158.9744,4154.8718,4138.9744,4196.4103,4158.4615,4188.7179,4180.5128
4170.2564,4143.0769,4142.5641,4201.5385,4115.8974,4155.8974,4147.1795,4127.1795,4192.3077,4153.3333,4176.9231,4172.3077
4170.2564,4150.7692,4139.4872,4195.3846,4102.5641,4157.4359,4147.1795,4131.2821,4191.2821,4154.359,4175.3846,4180
4166.6667,4159.4872,4144.1026,4203.5897,4104.6154,4152.3077,4145.641,4135.8974,4182.5641,4149.2308,4167.6923,4176.9231
4155.8974,4153.3333,4140,4194.8718,4109.2308,4144.1026,4145.1282,4128.7179,4172.3077,4144.6154,4162.0513,4168.7179
4160.5128,4153.3333,4134.359,4184.1026,4103.5897,4145.641,4150.2564,4126.1538,4174.359,4147.1795,4168.7179,4172.3077
4167.1795,4158.9744,4136.4103,4185.1282,4107.1795,4153.3333,4153.3333,4132.3077,4176.4103,4146.1538,4167.1795,4177.9487
4168.7179,4167.1795,4146.1538,4192.8205,4113.3333,4156.4103,4155.3846,4140.5128,4180.5128,4145.1282,4167.1795,4181.5385
4172.3077,4171.7949,4152.3077,4198.9744,4104.6154,4152.8205,4156.9231,4141.0256,4188.2051,4146.6667,4173.3333,4184.1026
4168.7179,4166.6667,4143.5897,4195.3846,4103.0769,4153.8462,4148.2051,4128.7179,4177.4359,4141.5385,4165.641,4183.0769
4156.9231,4163.5897,4133.8462,4191.7949,4121.5385,4162.0513,4141.5385,4128.7179,4163.5897,4134.8718,4157.9487,4179.4872
4156.9231,4169.2308,4135.3846,4195.3846,4124.6154,4162.0513,4149.7436,4142.5641,4172.8205,4138.9744,4156.4103,4175.8974
4171.2821,4173.3333,4143.0769,4197.9487,4113.3333,4158.9744,4156.9231,4147.1795,4182.0513,4144.6154,4153.8462,4182.0513
4168.2051,4166.6667,4146.1538,4198.4615,4113.3333,4161.5385,4152.8205,4146.1538,4171.7949,4142.5641,4155.8974,4186.1538
4158.4615,4165.1282,4143.0769,4200.5128,4118.4615,4162.0513,4154.359,4155.8974,4171.2821,4142.0513,4163.5897,4181.0256
4155.3846,4169.7436,4142.0513,4198.9744,4118.4615,4157.9487,4156.9231,4163.0769,4179.4872,4145.641,4165.1282,4184.6154
4148.7179,4164.6154,4145.1282,4200.5128,4104.1026,4156.9231,4154.8718,4153.3333,4173.8462,4148.2051,4160.5128,4190.2564
4145.641,4156.4103,4146.1538,4197.9487,4099.4872,4160.5128,4155.8974,4146.1538,4170.2564,4148.7179,4160,4183.0769
4144.6154,4148.7179,4132.3077,4174.8718,4119.4872,4150.2564,4150.7692,4143.5897,4161.5385,4142.0513,4150.2564,4167.1795
4138.9744,4148.2051,4120.5128,4163.0769,4125.1282,4137.4359,4138.9744,4142.5641,4150.7692,4140,4140,4166.1538
4141.0256,4159.4872,4129.2308,4170.7692,4111.2821,4143.0769,4142.5641,4147.6923,4158.4615,4147.6923,4144.1026,4179.4872
4144.1026,4163.5897,4133.3333,4166.1538,4108.7179,4152.3077,4152.8205,4150.7692,4162.5641,4145.1282,4143.5897,4177.4359
4135.3846,4159.4872,4125.641,4154.359,4123.5897,4156.9231,4153.3333,4158.4615,4161.0256,4138.4615,4143.5897,4174.359
4136.9231,4169.2308,4130.2564,4158.4615,4122.0513,4160.5128,4152.8205,4172.8205,4171.2821,4145.1282,4160,4186.6667
4149.7436,4175.3846,4140,4163.5897,4107.1795,4156.4103,4149.7436,4174.8718,4171.7949,4150.7692,4167.1795,4192.3077
4148.2051,4162.0513,4134.359,4159.4872,4103.5897,4144.6154,4144.1026,4165.1282,4161.5385,4144.6154,4152.8205,4185.641
4142.5641,4156.9231,4132.8205,4153.3333,4114.359,4147.1795,4148.7179,4163.5897,4162.5641,4145.1282,4147.1795,4186.6667
4144.6154,4171.2821,4141.5385,4145.641,4124.1026,4158.4615,4155.3846,4167.1795,4167.6923,4152.3077,4162.0513,4197.4359
4142.0513,4174.8718,4138.9744,4139.4872,4122.5641,4157.9487,4150.7692,4162.5641,4163.0769,4149.2308,4169.7436,4197.9487
4141.5385,4163.0769,4137.9487,4146.6667,4115.8974,4154.359,4151.7949,4165.641,4168.7179,4151.2821,4172.3077,4199.4872
4149.7436,4162.5641,4144.1026,4164.1026,4111.2821,4157.4359,4156.9231,4177.9487,4178.9744,4156.9231,4183.0769,4206.1538
4149.2308,4165.641,4139.4872,4160.5128,4118.9744,4153.8462,4148.2051,4168.7179,4164.6154,4146.6667,4174.8718,4197.4359
4141.0256,4158.4615,4134.8718,4144.6154,4134.8718,4145.1282,4137.4359,4149.2308,4150.7692,4137.9487,4156.4103,4188.2051
4130.2564,4147.6923,4136.4103,4154.359,4130.7692,4141.5385,4136.9231,4147.1795,4149.7436,4138.4615,4153.3333,4188.7179
4127.6923,4147.6923,4136.9231,4171.2821,4125.1282,4142.5641,4140.5128,4154.359,4147.6923,4139.4872,4161.0256,4192.3077
4138.4615,4153.3333,4137.4359,4153.8462,4142.0513,4144.1026,4139.4872,4156.4103,4149.2308,4143.0769,4165.641,4193.8462
4132.3077,4146.1538,4134.8718,4126.6667,4140,4142.0513,4137.4359,4154.359,4146.6667,4144.1026,4161.0256,4189.2308
4120,4140.5128,4133.8462,4135.8974,4118.9744,4139.4872,4140.5128,4159.4872,4142.5641,4141.0256,4160,4188.7179
4124.6154,4144.6154,4136.4103,4152.3077,4122.0513,4142.5641,4142.0513,4160,4142.0513,4136.4103,4154.8718,4186.6667
4129.7436,4150.7692,4131.7949,4147.1795,4132.3077,4145.1282,4139.4872,4152.8205,4140,4131.2821,4145.1282,4177.4359
4130.2564,4160.5128,4125.1282,4146.1538,4124.1026,4140,4137.4359,4156.4103,4144.6154,4131.2821,4153.3333,4181.0256
4129.2308,4166.6667,4125.641,4153.3333,4116.9231,4132.3077,4137.9487,4163.5897,4157.4359,4131.7949,4172.8205,4195.3846
4122.0513,4156.9231,4121.5385,4147.6923,4127.1795,4133.8462,4138.4615,4158.9744,4153.8462,4127.6923,4171.2821,4190.7692
4112.8205,4144.6154,4115.8974,4141.5385,4133.3333,4138.4615,4139.4872,4154.8718,4138.9744,4120.5128,4157.4359,4176.4103
4112.3077,4148.2051,4117.9487,4145.641,4136.4103,4137.4359,4140,4157.4359,4140.5128,4123.5897,4158.4615,4181.0256
4123.0769,4160.5128,4121.0256,4145.641,4142.5641,4136.4103,4138.9744,4158.9744,4149.7436,4133.3333,4164.6154,4194.8718
4126.6667,4161.5385,4117.4359,4144.1026,4143.5897,4137.9487,4141.0256,4164.1026,4145.641,4133.3333,4164.6154,4194.8718
4109.7436,4145.1282,4110.7692,4139.4872,4142.5641,4136.9231,4141.5385,4167.1795,4136.9231,4122.0513,4161.5385,4183.5897
4090.7692,4134.8718,4104.6154,4124.6154,4137.4359,4128.2051,4135.3846,4153.8462,4132.8205,4109.7436,4154.8718,4172.8205
4099.4872,4140.5128,4103.0769,4124.1026,4129.7436,4121.0256,4128.2051,4145.1282,4134.8718,4111.7949,4151.2821,4169.7436
4109.7436,4139.4872,4106.1538,4134.8718,4127.1795,4124.1026,4126.1538,4156.4103,4142.0513,4118.9744,4156.4103,4171.7949
4096.4103,4128.2051,4105.1282,4122.5641,4127.6923,4124.6154,4125.641,4155.3846,4138.4615,4113.8462,4154.8718,4168.2051
4092.8205,4130.7692,4103.5897,4109.2308,4130.7692,4117.9487,4125.1282,4146.6667,4124.6154,4109.2308,4146.1538,4161.0256
4105.641,4136.4103,4108.2051,4119.4872,4125.641,4119.4872,4129.2308,4163.0769,4126.1538,4116.9231,4150.7692,4163.5897
4103.0769,4122.5641,4107.1795,4115.8974,4112.8205,4126.1538,4135.8974,4182.0513,4134.8718,4123.0769,4157.9487,4170.2564
4098.4615,4116.4103,4099.4872,4097.4359,4120.5128,4129.2308,4138.9744,4178.9744,4134.8718,4120.5128,4156.4103,4173.8462
4103.0769,4124.1026,4096.9231,4100.5128,4137.9487,4130.2564,4135.3846,4170.7692,4126.1538,4116.4103,4151.2821,4168.7179
4101.0256,4121.0256,4104.1026,4110.7692,4137.9487,4131.7949,4131.7949,4171.7949,4125.1282,4120,4150.2564,4168.2051
4109.2308,4116.4103,4109.7436,4107.1795,4137.4359,4138.4615,4133.3333,4171.2821,4143.0769,4128.2051,4155.8974,4183.0769
4119.4872,4111.2821,4106.1538,4095.3846,4150.2564,4143.5897,4128.2051,4161.5385,4145.641,4123.5897,4154.8718,4187.1795
4117.4359,4115.3846,4112.3077,4099.4872,4158.4615,4146.1538,4128.2051,4162.0513,4132.8205,4124.6154,4157.9487,4188.7179
4124.1026,4129.7436,4125.1282,4111.7949,4154.8718,4152.3077,4139.4872,4170.7692,4145.1282,4140,4167.6923,4200.5128
4135.8974,4129.7436,4123.5897,4103.0769,4152.3077,4152.8205,4137.4359,4159.4872,4162.5641,4145.641,4167.1795,4197.4359
4133.8462,4116.9231,4121.0256,4087.1795,4153.3333,4144.1026,4125.1282,4146.6667,4153.3333,4141.0256,4160,4185.1282
4124.6154,4111.2821,4128.7179,4090.7692,4148.7179,4143.0769,4127.1795,4146.1538,4140,4143.5897,4155.8974,4187.1795
4126.1538,4111.7949,4131.2821,4102.5641,4148.2051,4156.4103,4137.9487,4143.5897,4146.6667,4145.1282,4158.4615,4198.9744
4127.1795,4108.2051,4126.6667,4097.4359,4163.0769,4156.4103,4134.8718,4135.3846,4148.2051,4132.8205,4158.9744,4195.3846
4127.1795,4110.2564,4127.6923,4088.2051,4162.0513,4141.5385,4131.2821,4136.4103,4142.0513,4127.6923,4157.9487,4184.1026
4135.3846,4118.9744,4131.7949,4090.7692,4150.2564,4140,4136.9231,4146.6667,4143.5897,4134.359,4164.6154,4188.2051
4130.2564,4111.7949,4127.1795,4084.1026,4155.8974,4143.5897,4139.4872,4141.5385,4139.4872,4130.2564,4163.0769,4193.3333
4121.5385,4101.5385,4120.5128,4077.9487,4157.4359,4137.4359,4138.4615,4132.3077,4136.4103,4126.1538,4149.7436,4190.2564
4124.1026,4105.1282,4122.0513,4091.2821,4142.5641,4131.2821,4138.4615,4130.7692,4140.5128,4128.2051,4143.0769,4186.1538
4124.6154,4109.2308,4123.0769,4103.5897,4136.9231,4134.359,4137.4359,4127.1795,4146.6667,4132.3077,4146.1538,4187.1795
4128.7179,4113.8462,4123.5897,4100.5128,4142.0513,4141.0256,4137.9487,4128.7179,4152.8205,4135.3846,4154.8718,4195.3846
4139.4872,4112.8205,4127.1795,4095.3846,4131.2821,4138.4615,4133.8462,4129.7436,4149.7436,4133.8462,4158.9744,4192.8205
4142.5641,4108.7179,4133.3333,4099.4872,4127.1795,4130.7692,4124.6154,4124.1026,4144.6154,4136.4103,4160,4189.7436
4133.8462,4112.8205,4133.3333,4104.1026,4144.1026,4132.8205,4124.1026,4122.5641,4146.6667,4140.5128,4162.5641,4197.4359
4132.8205,4117.4359,4135.8974,4106.6667,4147.1795,4142.5641,4132.8205,4128.7179,4140.5128,4142.0513,4162.5641,4200
4144.1026,4113.3333,4144.6154,4108.2051,4139.4872,4143.5897,4136.4103,4134.359,4138.4615,4146.6667,4160.5128,4200.5128
4138.9744,4097.4359,4138.4615,4099.4872,4138.4615,4134.8718,4136.4103,4131.7949,4140.5128,4146.1538,4148.2051,4195.8974
4125.641,4090.7692,4125.641,4095.3846,4140,4132.3077,4140,4127.6923,4130.7692,4134.359,4134.359,4185.641
4126.1538,4096.4103,4127.6923,4110.7692,4117.9487,4129.7436,4140.5128,4125.641,4124.1026,4128.2051,4135.8974,4184.1026
4129.7436,4095.8974,4138.9744,4120,4093.8462,4118.9744,4140.5128,4126.6667,4131.7949,4137.9487,4145.641,4192.8205
4131.7949,4095.3846,4143.0769,4107.1795,4120,4120,4137.9487,4125.1282,4133.8462,4142.0513,4147.6923,4195.8974
4132.8205,4108.7179,4137.4359,4099.4872,4155.8974,4130.7692,4129.2308,4117.9487,4124.6154,4128.7179,4142.5641,4188.2051
4132.8205,4120.5128,4132.3077,4104.6154,4142.0513,4133.3333,4123.5897,4111.2821,4123.0769,4122.0513,4143.0769,4181.5385
4130.2564,4111.2821,4132.8205,4099.4872,4127.6923,4135.3846,4123.5897,4106.6667,4117.4359,4122.0513,4137.9487,4170.2564
4123.5897,4101.0256,4131.2821,4090.7692,4152.3077,4135.3846,4122.0513,4106.6667,4104.6154,4117.4359,4129.2308,4158.4615
4115.8974,4102.0513,4128.2051,4094.359,4153.8462,4128.2051,4123.5897,4112.3077,4105.641,4119.4872,4136.4103,4162.5641
4112.8205,4103.5897,4133.3333,4100.5128,4131.7949,4128.7179,4131.7949,4116.9231,4115.3846,4125.1282,4145.1282,4172.8205
4123.5897,4112.8205,4140.5128,4102.0513,4140.5128,4141.0256,4136.9231,4123.0769,4124.6154,4128.7179,4147.1795,4177.9487
4136.9231,4122.5641,4141.0256,4091.7949,4160.5128,4142.5641,4136.4103,4130.7692,4130.2564,4135.8974,4155.8974,4186.6667
4131.2821,4112.8205,4142.5641,4083.5897,4142.5641,4133.8462,4138.4615,4132.8205,4132.8205,4145.641,4161.5385,4190.2564
4125.1282,4104.6154,4144.6154,4098.4615,4118.4615,4136.9231,4137.4359,4128.7179,4133.3333,4147.6923,4157.4359,4184.1026
4132.3077,4113.3333,4137.4359,4109.2308,4134.8718,4142.0513,4126.1538,4115.8974,4126.1538,4139.4872,4155.8974,4178.4615
4125.641,4118.4615,4128.7179,4104.1026,4158.9744,4132.3077,4117.9487,4097.4359,4113.3333,4130.7692,4152.3077,4172.8205
4116.4103,4118.9744,4126.1538,4109.2308,4143.0769,4123.0769,4120.5128,4092.8205,4113.3333,4131.2821,4146.6667,4168.7179
4122.0513,4109.7436,4121.5385,4110.7692,4123.5897,4126.6667,4121.0256,4098.4615,4120.5128,4132.8205,4143.0769,4163.0769
4125.1282,4102.5641,4123.0769,4103.0769,4145.1282,4131.2821,4120.5128,4098.4615,4123.5897,4134.359,4144.6154,4163.5897
4128.2051,4116.4103,4140,4106.1538,4167.6923,4132.8205,4122.0513,4101.5385,4132.8205,4140,4151.7949,4177.4359
4140.5128,4130.7692,4148.7179,4112.3077,4162.5641,4136.9231,4121.5385,4113.8462,4143.0769,4147.6923,4160.5128,4191.2821
4151.7949,4128.2051,4148.2051,4116.9231,4157.9487,4141.5385,4129.2308,4129.2308,4144.6154,4152.3077,4169.7436,4195.8974
4147.6923,4122.0513,4146.6667,4113.3333,4160.5128,4140.5128,4138.9744,4133.3333,4138.9744,4149.2308,4163.5897,4187.1795
4137.4359,4121.5385,4144.1026,4096.4103,4145.641,4134.8718,4131.2821,4131.7949,4139.4872,4148.2051,4154.8718,4181.5385
4133.3333,4117.9487,4144.6154,4099.4872,4126.1538,4129.7436,4126.1538,4132.3077,4145.641,4148.2051,4154.8718,4189.2308
4128.7179,4111.7949,4146.6667,4121.5385,4136.9231,4128.2051,4133.3333,4131.7949,4143.5897,4146.6667,4148.7179,4191.7949
4121.5385,4111.2821,4142.0513,4127.1795,4158.4615,4131.7949,4132.3077,4134.359,4142.0513,4142.5641,4142.5641,4185.641
4118.9744,4118.4615,4132.3077,4116.4103,4153.8462,4131.7949,4120,4131.7949,4137.9487,4134.8718,4142.5641,4178.4615
4122.0513,4128.7179,4128.2051,4111.2821,4143.0769,4128.2051,4115.3846,4120,4122.5641,4131.7949,4142.0513,4171.2821
4111.2821,4124.1026,4124.1026,4112.3077,4139.4872,4123.0769,4116.9231,4112.3077,4109.7436,4134.8718,4133.8462,4162.0513
4094.359,4114.359,4118.4615,4112.8205,4132.3077,4120.5128,4118.4615,4113.8462,4109.2308,4136.9231,4124.6154,4157.9487
4100.5128,4124.6154,4122.5641,4110.2564,4134.359,4122.5641,4121.5385,4117.9487,4114.359,4136.9231,4123.5897,4165.1282
4120,4134.359,4132.3077,4111.7949,4140.5128,4125.641,4123.5897,4124.6154,4121.5385,4143.5897,4126.6667,4170.2564
4131.7949,4131.2821,4141.5385,4118.4615,4154.8718,4129.7436,4127.6923,4135.8974,4131.7949,4153.3333,4130.2564,4174.8718
4129.2308,4131.2821,4140,4111.2821,4161.0256,4135.8974,4128.2051,4136.9231,4137.4359,4153.8462,4131.2821,4178.4615
4115.8974,4134.359,4138.4615,4095.3846,4133.8462,4133.8462,4125.641,4127.1795,4138.4615,4150.2564,4133.3333,4174.359
4115.8974,4135.3846,4141.0256,4089.2308,4127.6923,4128.7179,4126.1538,4127.1795,4141.5385,4149.2308,4137.4359,4168.7179
4126.1538,4136.4103,4136.4103,4087.6923,4153.8462,4132.8205,4124.6154,4134.359,4141.0256,4147.6923,4134.8718,4164.1026
4132.3077,4143.0769,4134.8718,4093.8462,4143.5897,4139.4872,4126.1538,4141.0256,4145.1282,4154.359,4136.9231,4162.5641
4138.4615,4149.7436,4141.5385,4105.641,4115.3846,4140,4131.2821,4143.5897,4156.4103,4158.9744,4148.7179,4168.7179
4132.3077,4141.0256,4137.4359,4099.4872,4129.7436,4137.4359,4124.6154,4133.3333,4152.8205,4147.6923,4146.1538,4164.1026
4112.8205,4129.7436,4125.641,4081.5385,4153.8462,4135.8974,4114.8718,4123.0769,4137.9487,4137.9487,4129.2308,4152.3077
4104.6154,4128.2051,4121.0256,4074.8718,4138.9744,4129.7436,4117.4359,4126.6667,4129.2308,4137.4359,4123.5897,4151.2821
4115.8974,4129.2308,4124.1026,4086.6667,4125.1282,4127.6923,4124.6154,4137.4359,4133.8462,4138.9744,4132.3077,4157.9487
4121.5385,4134.8718,4132.8205,4100.5128,4144.6154,4138.4615,4124.6154,4142.5641,4141.5385,4142.0513,4133.8462,4156.4103
4114.359,4141.5385,4136.4103,4100.5128,4138.4615,4139.4872,4124.1026,4142.5641,4136.9231,4145.1282,4128.2051,4149.7436
4116.9231,4140.5128,4129.7436,4102.0513,4107.1795,4127.6923,4122.0513,4147.1795,4131.7949,4145.1282,4129.2308,4153.8462
4115.8974,4132.3077,4122.0513,4101.0256,4116.9231,4123.0769,4112.8205,4142.0513,4128.2051,4138.9744,4127.6923,4155.3846
4103.5897,4131.2821,4121.5385,4094.8718,4144.6154,4124.1026,4106.1538,4127.6923,4123.5897,4131.2821,4113.8462,4146.6667
4098.9744,4133.3333,4124.6154,4096.9231,4137.4359,4118.4615,4106.6667,4128.7179,4127.6923,4131.7949,4105.641,4145.1282
4103.0769,4128.7179,4119.4872,4099.4872,4128.7179,4115.3846,4110.2564,4140,4131.2821,4134.359,4111.2821,4156.9231
4106.6667,4129.2308,4111.7949,4094.8718,4140,4122.5641,4112.8205,4138.9744,4126.1538,4134.359,4116.4103,4166.6667
4106.6667,4131.7949,4113.3333,4093.8462,4127.1795,4123.5897,4113.8462,4129.7436,4124.1026,4132.3077,4112.8205,4162.0513
4109.2308,4134.359,4119.4872,4100.5128,4116.9231,4118.4615,4117.4359,4131.7949,4130.7692,4137.4359,4114.359,4163.0769
4122.5641,4143.5897,4127.6923,4102.5641,4138.9744,4126.1538,4123.0769,4143.5897,4142.0513,4149.2308,4130.2564,4187.1795
4127.1795,4145.1282,4132.8205,4105.1282,4143.0769,4131.2821,4124.6154,4145.641,4145.1282,4149.2308,4134.359,4198.9744
4113.3333,4137.4359,4127.1795,4104.6154,4126.6667,4118.4615,4116.9231,4138.9744,4137.4359,4139.4872,4121.5385,4179.4872
4103.5897,4129.7436,4117.4359,4091.2821,4124.6154,4109.2308,4108.7179,4134.359,4128.7179,4133.3333,4111.7949,4161.0256
4108.7179,4123.0769,4111.2821,4081.0256,4126.6667,4113.3333,4106.6667,4128.2051,4125.1282,4130.2564,4103.0769,4157.9487
4115.8974,4129.2308,4113.8462,4087.6923,4128.7179,4120,4113.8462,4130.2564,4130.7692,4132.3077,4104.1026,4165.1282
4107.1795,4138.4615,4113.3333,4098.4615,4139.4872,4120.5128,4120,4137.9487,4129.2308,4131.7949,4106.6667,4162.0513
4100.5128,4138.9744,4110.2564,4104.6154,4143.5897,4123.5897,4125.641,4142.0513,4126.1538,4129.2308,4106.6667,4155.3846
4113.3333,4143.5897,4118.4615,4115.8974,4140,4131.2821,4135.8974,4152.8205,4134.359,4132.8205,4115.3846,4167.6923
4116.9231,4146.6667,4125.641,4120,4142.5641,4131.2821,4135.8974,4161.5385,4134.359,4137.4359,4114.8718,4179.4872
4101.5385,4139.4872,4121.0256,4107.1795,4148.7179,4127.1795,4126.1538,4156.4103,4128.2051,4135.8974,4106.1538,4174.359
4098.9744,4138.9744,4118.4615,4098.9744,4147.6923,4125.1282,4126.1538,4147.1795,4130.2564,4135.8974,4114.8718,4169.7436
4112.3077,4143.5897,4124.6154,4107.6923,4143.5897,4128.2051,4131.7949,4149.2308,4141.5385,4143.0769,4130.7692,4181.0256
4103.0769,4133.3333,4121.0256,4109.7436,4144.1026,4128.2051,4128.2051,4151.2821,4143.0769,4140,4117.4359,4180
4080,4117.9487,4107.6923,4088.7179,4147.6923,4118.9744,4118.4615,4140.5128,4128.7179,4127.6923,4087.6923,4153.8462
4083.0769,4126.1538,4105.1282,4082.5641,4152.8205,4118.4615,4120,4135.8974,4123.0769,4129.2308,4084.1026,4148.2051
4097.4359,4140,4113.8462,4107.6923,4153.3333,4128.7179,4131.2821,4144.6154,4137.4359,4139.4872,4101.5385,4168.7179
4107.6923,4141.5385,4122.5641,4118.4615,4147.6923,4129.7436,4133.3333,4151.2821,4149.7436,4143.5897,4112.8205,4170.7692
4117.4359,4144.1026,4131.2821,4105.1282,4149.2308,4125.1282,4124.6154,4149.7436,4152.8205,4145.641,4115.8974,4166.1538
4114.8718,4145.641,4138.9744,4096.9231,4160.5128,4127.6923,4121.0256,4147.6923,4155.3846,4147.6923,4127.1795,4183.0769
4113.3333,4146.1538,4137.9487,4094.359,4158.4615,4131.7949,4123.5897,4150.7692,4158.9744,4147.1795,4138.9744,4198.9744
4121.0256,4147.1795,4130.2564,4085.1282,4146.6667,4134.359,4128.7179,4152.8205,4159.4872,4144.1026,4131.7949,4192.3077
4121.0256,4142.5641,4125.641,4084.6154,4153.3333,4135.8974,4131.2821,4156.4103,4161.0256,4143.5897,4122.5641,4185.1282
4112.3077,4138.4615,4122.5641,4090.7692,4163.0769,4134.8718,4128.2051,4161.0256,4161.0256,4145.641,4130.2564,4183.5897
4101.5385,4131.2821,4118.9744,4089.7436,4149.7436,4130.7692,4124.1026,4155.8974,4156.4103,4143.5897,4127.6923,4172.8205
4105.1282,4132.8205,4121.5385,4091.7949,4140.5128,4131.7949,4126.1538,4154.8718,4156.9231,4142.0513,4118.4615,4172.8205
4121.5385,4145.641,4127.1795,4099.4872,4156.4103,4140.5128,4130.7692,4159.4872,4159.4872,4144.6154,4127.1795,4183.5897
4135.3846,4160,4137.4359,4106.6667,4168.7179,4149.7436,4136.9231,4160.5128,4168.2051,4155.3846,4142.5641,4187.6923
4136.9231,4166.6667,4142.5641,4114.359,4160,4145.641,4138.9744,4157.9487,4177.4359,4158.9744,4148.7179,4194.8718
4132.3077,4160.5128,4137.4359,4117.4359,4147.1795,4133.8462,4133.8462,4155.8974,4168.2051,4147.6923,4151.7949,4204.6154
4131.2821,4162.0513,4137.9487,4114.8718,4163.0769,4137.4359,4135.8974,4156.4103,4158.4615,4145.641,4163.5897,4205.1282
4130.7692,4173.8462,4141.0256,4107.1795,4179.4872,4148.7179,4140.5128,4159.4872,4163.0769,4151.7949,4168.2051,4198.9744
4129.7436,4172.8205,4139.4872,4101.0256,4167.1795,4150.2564,4139.4872,4162.5641,4168.2051,4149.2308,4161.5385,4196.4103
4132.8205,4160.5128,4138.4615,4103.5897,4162.0513,4149.7436,4142.5641,4167.1795,4171.2821,4145.1282,4164.1026,4198.9744
4137.9487,4157.4359,4136.9231,4112.8205,4160.5128,4151.2821,4146.6667,4175.3846,4171.2821,4149.2308,4173.8462,4205.1282
4140.5128,4162.5641,4137.9487,4123.0769,4151.2821,4151.2821,4143.0769,4180.5128,4167.1795,4152.3077,4179.4872,4213.3333
4141.0256,4160,4145.641,4125.641,4157.9487,4149.2308,4138.9744,4179.4872,4170.2564,4149.2308,4174.8718,4216.9231
4144.1026,4156.9231,4148.2051,4115.8974,4166.6667,4146.6667,4141.5385,4174.8718,4176.9231,4149.2308,4167.6923,4215.3846
4143.0769,4157.4359,4143.5897,4104.6154,4154.8718,4145.641,4142.0513,4173.8462,4184.6154,4157.4359,4170.2564,4215.3846
4138.4615,4151.7949,4143.5897,4101.5385,4149.7436,4146.6667,4138.4615,4175.3846,4191.2821,4157.4359,4172.8205,4217.9487
4138.4615,4144.6154,4143.0769,4100,4163.5897,4149.2308,4139.4872,4172.3077,4188.7179,4148.2051,4162.5641,4221.5385
4145.641,4140.5128,4138.4615,4095.3846,4154.8718,4149.7436,4147.6923,4167.1795,4186.6667,4146.6667,4152.8205,4223.5897
4147.1795,4140,4138.9744,4098.4615,4131.7949,4148.2051,4154.359,4165.641,4189.2308,4153.3333,4149.7436,4226.6667
4143.0769,4144.6154,4143.0769,4107.1795,4138.4615,4150.2564,4155.3846,4165.1282,4186.6667,4153.8462,4149.2308,4229.7436
4141.0256,4145.1282,4136.4103,4103.0769,4160,4150.7692,4149.7436,4155.3846,4177.9487,4145.641,4140,4218.9744
4148.7179,4152.3077,4132.3077,4101.0256,4162.0513,4148.7179,4145.641,4151.2821,4177.9487,4145.1282,4135.8974,4215.3846
4153.3333,4160.5128,4145.1282,4112.3077,4161.0256,4150.7692,4143.5897,4155.3846,4181.5385,4148.2051,4144.1026,4224.1026
4141.0256,4147.6923,4148.2051,4112.8205,4163.5897,4146.1538,4139.4872,4151.2821,4173.8462,4141.5385,4141.5385,4220.5128
4142.5641,4138.9744,4140,4102.5641,4154.359,4140,4137.4359,4146.6667,4172.8205,4139.4872,4132.3077,4218.4615
4161.5385,4148.2051,4143.5897,4102.5641,4148.2051,4147.1795,4138.9744,4148.2051,4180.5128,4145.1282,4131.2821,4224.6154
4162.5641,4150.2564,4146.1538,4104.1026,4149.7436,4155.3846,4138.9744,4147.1795,4175.8974,4146.6667,4131.2821,4217.9487
4146.1538,4140.5128,4138.9744,4101.5385,4147.6923,4148.7179,4136.9231,4141.5385,4165.1282,4144.6154,4124.1026,4209.2308
4144.6154,4135.8974,4138.9744,4098.9744,4147.6923,4142.0513,4136.4103,4139.4872,4167.6923,4147.6923,4124.6154,4213.3333
4154.359,4145.641,4149.7436,4101.5385,4147.6923,4148.2051,4140.5128,4146.6667,4184.6154,4156.9231,4143.5897,4225.1282
4141.5385,4147.6923,4148.2051,4101.0256,4146.6667,4148.7179,4139.4872,4142.0513,4183.5897,4153.8462,4147.6923,4224.6154
4129.2308,4133.3333,4132.3077,4089.7436,4149.2308,4142.5641,4128.7179,4121.0256,4166.1538,4142.0513,4129.2308,4208.7179
4143.5897,4130.2564,4128.2051,4083.5897,4140,4138.9744,4118.9744,4112.8205,4163.5897,4140.5128,4125.1282,4197.9487
4151.7949,4137.4359,4134.359,4085.641,4125.641,4136.9231,4124.6154,4124.1026,4175.8974,4145.1282,4142.0513,4205.641
4142.0513,4133.8462,4136.9231,4079.4872,4137.4359,4139.4872,4136.4103,4131.2821,4181.0256,4146.6667,4148.2051,4216.9231
4132.8205,4128.2051,4132.8205,4075.3846,4146.1538,4138.9744,4132.8205,4123.0769,4166.1538,4140,4133.8462,4210.2564
4137.4359,4135.8974,4131.2821,4088.2051,4133.3333,4130.2564,4121.5385,4115.3846,4160.5128,4137.9487,4125.641,4204.6154
4148.7179,4143.0769,4135.3846,4097.9487,4132.8205,4128.7179,4120,4121.0256,4178.9744,4146.6667,4140,4219.4872
4144.1026,4136.9231,4135.3846,4088.7179,4138.4615,4127.1795,4122.0513,4117.9487,4179.4872,4147.1795,4146.1538,4222.0513
4130.7692,4133.8462,4129.7436,4079.4872,4130.7692,4126.1538,4120.5128,4104.6154,4161.5385,4137.9487,4136.4103,4202.5641
4128.7179,4132.8205,4120.5128,4076.9231,4122.0513,4130.2564,4118.4615,4105.1282,4159.4872,4135.3846,4128.2051,4187.1795
4129.2308,4130.2564,4117.9487,4080,4118.4615,4128.2051,4117.9487,4112.3077,4162.5641,4137.9487,4125.1282,4184.6154
4130.7692,4133.3333,4121.5385,4085.641,4124.1026,4124.6154,4117.4359,4110.7692,4155.8974,4136.4103,4127.1795,4192.3077
4133.3333,4133.3333,4121.5385,4086.1538,4136.9231,4132.8205,4122.5641,4108.7179,4154.8718,4132.3077,4127.1795,4194.359
4131.2821,4128.7179,4121.5385,4089.7436,4136.9231,4138.9744,4125.641,4110.2564,4161.5385,4134.8718,4125.1282,4185.641
4132.8205,4127.6923,4125.1282,4100.5128,4120.5128,4133.3333,4123.5897,4111.7949,4163.0769,4137.4359,4129.7436,4185.641
4128.7179,4126.6667,4126.1538,4105.1282,4120.5128,4129.2308,4122.0513,4112.3077,4163.0769,4135.3846,4134.8718,4193.8462
4118.4615,4130.7692,4124.6154,4104.1026,4133.3333,4135.3846,4123.5897,4108.2051,4169.2308,4133.8462,4127.6923,4191.2821
4123.5897,4133.8462,4125.1282,4104.6154,4122.0513,4136.9231,4127.1795,4099.4872,4168.2051,4132.8205,4116.4103,4183.5897
4136.4103,4125.641,4124.1026,4106.1538,4118.9744,4129.2308,4128.7179,4096.9231,4158.9744,4132.3077,4118.9744,4183.5897
4125.1282,4119.4872,4117.9487,4093.3333,4134.359,4128.7179,4129.7436,4097.4359,4147.6923,4129.2308,4118.4615,4172.8205
4110.7692,4127.1795,4116.4103,4084.6154,4123.0769,4131.7949,4134.8718,4096.9231,4146.6667,4128.7179,4109.2308,4161.5385
4116.9231,4138.9744,4124.6154,4104.1026,4115.3846,4132.3077,4138.9744,4104.1026,4161.0256,4134.8718,4110.2564,4175.3846
4116.9231,4133.3333,4125.1282,4111.7949,4136.4103,4132.3077,4137.9487,4107.6923,4155.8974,4134.359,4109.7436,4178.4615
4117.4359,4126.1538,4120,4097.9487,4140,4134.359,4135.8974,4102.5641,4140.5128,4131.2821,4108.2051,4165.1282
4132.3077,4136.4103,4129.7436,4107.6923,4127.1795,4133.3333,4135.3846,4103.0769,4153.3333,4135.3846,4116.9231,4172.3077
4128.7179,4134.8718,4134.8718,4122.0513,4127.6923,4126.6667,4126.6667,4102.0513,4162.5641,4136.9231,4120,4181.5385
4117.4359,4120,4126.1538,4110.2564,4137.9487,4125.641,4120.5128,4101.0256,4149.7436,4137.4359,4117.9487,4182.0513
4124.1026,4115.8974,4126.6667,4107.6923,4136.9231,4130.2564,4131.2821,4108.2051,4144.6154,4139.4872,4117.4359,4186.1538
4125.1282,4115.8974,4135.3846,4126.1538,4115.8974,4131.2821,4140,4114.359,4145.641,4143.5897,4118.4615,4184.6154
4116.4103,4110.2564,4133.8462,4128.2051,4101.5385,4128.7179,4134.359,4110.7692,4136.4103,4144.6154,4120,4175.8974
4122.0513,4110.7692,4125.1282,4110.7692,4111.7949,4127.1795,4132.8205,4109.2308,4133.3333,4144.6154,4112.8205,4168.7179
4130.7692,4119.4872,4126.6667,4111.2821,4126.6667,4134.8718,4139.4872,4117.4359,4141.5385,4145.641,4107.1795,4167.6923
4125.641,4121.0256,4135.3846,4126.6667,4125.1282,4138.4615,4138.4615,4126.6667,4145.641,4144.1026,4112.3077,4170.7692
4125.641,4126.1538,4141.5385,4128.2051,4125.1282,4132.3077,4134.8718,4133.3333,4149.2308,4145.1282,4116.9231,4178.4615
4132.3077,4134.8718,4138.4615,4114.359,4132.8205,4129.2308,4136.4103,4137.4359,4150.7692,4147.6923,4117.4359,4181.0256
4120.5128,4126.1538,4133.8462,4107.1795,4128.7179,4131.7949,4135.8974,4134.359,4144.1026,4147.1795,4118.9744,4174.359
4121.0256,4120.5128,4139.4872,4113.8462,4122.0513,4134.8718,4136.4103,4132.3077,4148.2051,4148.2051,4124.6154,4180
4140.5128,4135.3846,4142.0513,4117.4359,4125.641,4132.8205,4136.9231,4130.7692,4153.3333,4149.2308,4125.641,4187.6923
4139.4872,4147.6923,4138.4615,4111.7949,4136.9231,4135.3846,4133.3333,4121.5385,4144.6154,4145.641,4117.4359,4175.3846
4129.7436,4148.2051,4137.4359,4106.6667,4134.8718,4137.9487,4133.3333,4118.4615,4143.5897,4143.0769,4115.8974,4168.2051
4125.1282,4146.6667,4138.9744,4107.6923,4116.9231,4131.2821,4137.9487,4124.1026,4146.1538,4142.5641,4119.4872,4173.8462
4116.9231,4141.5385,4140,4103.5897,4120.5128,4133.3333,4136.9231,4129.2308,4139.4872,4147.1795,4120,4173.3333
4122.5641,4142.0513,4143.0769,4097.4359,4144.1026,4147.6923,4137.9487,4135.3846,4145.1282,4154.359,4123.0769,4177.9487
4151.2821,4155.3846,4149.2308,4103.0769,4147.6923,4147.1795,4141.0256,4141.0256,4158.9744,4160.5128,4134.359,4189.7436
4167.6923,4167.6923,4160,4115.3846,4139.4872,4137.4359,4140,4150.7692,4163.5897,4165.641,4148.2051,4200.5128
4159.4872,4162.0513,4165.641,4117.9487,4142.5641,4142.5641,4137.4359,4160,4160,4165.641,4149.2308,4203.0769
4154.359,4154.8718,4161.0256,4114.8718,4144.6154,4149.2308,4139.4872,4161.5385,4161.0256,4166.1538,4144.6154,4200
4151.2821,4159.4872,4159.4872,4109.2308,4133.8462,4140.5128,4140.5128,4159.4872,4165.1282,4166.1538,4148.7179,4199.4872
4145.641,4156.9231,4158.4615,4097.4359,4126.6667,4136.9231,4140,4158.4615,4160,4163.0769,4149.2308,4200
4143.5897,4145.1282,4155.8974,4089.7436,4128.2051,4142.0513,4141.0256,4156.4103,4156.9231,4161.0256,4142.5641,4197.9487
4142.0513,4139.4872,4151.2821,4088.7179,4130.2564,4138.9744,4138.4615,4147.6923,4155.3846,4156.4103,4141.0256,4192.8205
4140,4146.1538,4144.6154,4089.2308,4135.8974,4133.8462,4131.7949,4141.5385,4145.1282,4148.2051,4142.5641,4188.2051
4134.359,4151.2821,4143.0769,4094.8718,4135.8974,4134.8718,4132.3077,4147.6923,4136.9231,4145.1282,4135.8974,4177.4359
4126.6667,4144.1026,4147.6923,4102.5641,4131.2821,4137.9487,4138.9744,4160.5128,4142.0513,4151.7949,4130.7692,4172.3077
4133.8462,4139.4872,4145.1282,4097.4359,4136.4103,4142.0513,4140,4170.2564,4145.1282,4156.4103,4131.2821,4178.4615
4144.6154,4144.6154,4137.9487,4088.7179,4129.7436,4141.5385,4136.4103,4169.7436,4138.9744,4155.8974,4127.6923,4173.3333
4142.5641,4149.7436,4140,4093.3333,4117.4359,4136.4103,4136.9231,4169.7436,4139.4872,4156.9231,4128.7179,4166.6667
4137.9487,4152.8205,4140.5128,4092.8205,4122.0513,4132.8205,4135.3846,4167.1795,4143.5897,4156.9231,4135.3846,4172.3077
4142.0513,4164.1026,4145.1282,4088.2051,4132.3077,4135.8974,4136.9231,4164.6154,4146.6667,4161.0256,4137.9487,4177.9487
4151.7949,4164.6154,4158.9744,4094.359,4134.8718,4141.0256,4141.5385,4172.8205,4151.2821,4167.1795,4141.0256,4183.0769
4145.641,4147.1795,4155.8974,4095.3846,4131.2821,4138.9744,4139.4872,4168.2051,4143.5897,4162.0513,4134.359,4175.3846
4131.7949,4143.5897,4141.5385,4082.0513,4133.3333,4132.3077,4135.3846,4152.3077,4130.2564,4155.8974,4122.5641,4156.9231
4132.3077,4148.7179,4137.9487,4080.5128,4124.6154,4130.7692,4137.9487,4156.4103,4128.7179,4155.8974,4125.641,4155.3846
4129.7436,4132.3077,4139.4872,4085.641,4108.2051,4130.2564,4141.0256,4168.7179,4129.2308,4155.3846,4128.7179,4163.5897
4120,4125.1282,4137.9487,4086.1538,4120.5128,4131.7949,4139.4872,4166.1538,4128.2051,4152.3077,4123.0769,4164.1026
4125.641,4137.9487,4138.4615,4086.6667,4144.1026,4134.359,4138.4615,4165.1282,4128.2051,4150.2564,4125.641,4161.0256
4134.359,4137.9487,4140,4082.0513,4135.8974,4129.7436,4135.8974,4175.3846,4127.1795,4152.8205,4131.2821,4164.1026
4124.6154,4130.7692,4140.5128,4078.4615,4121.0256,4126.6667,4133.3333,4176.4103,4128.7179,4159.4872,4126.6667,4164.6154
4115.8974,4127.1795,4141.5385,4087.1795,4134.359,4127.1795,4130.2564,4165.1282,4131.7949,4160,4119.4872,4160.5128
4125.641,4128.7179,4138.9744,4097.4359,4127.1795,4126.6667,4126.6667,4159.4872,4126.6667,4157.4359,4122.5641,4161.5385
4125.641,4125.641,4133.3333,4093.8462,4100.5128,4124.1026,4125.1282,4162.5641,4117.9487,4154.359,4121.5385,4160.5128
4114.8718,4122.0513,4133.3333,4089.7436,4113.3333,4116.9231,4124.1026,4160.5128,4123.0769,4155.8974,4118.9744,4158.9744
4116.9231,4132.3077,4138.4615,4089.2308,4150.2564,4117.9487,4124.6154,4162.0513,4136.9231,4165.641,4130.7692,4168.7179
4126.6667,4137.9487,4138.9744,4087.1795,4154.359,4126.6667,4125.1282,4171.2821,4135.8974,4168.2051,4132.8205,4174.8718
4123.5897,4127.1795,4140.5128,4091.2821,4133.8462,4130.7692,4126.6667,4173.3333,4128.7179,4164.1026,4121.0256,4167.1795
4111.7949,4122.5641,4141.5385,4092.3077,4140.5128,4125.1282,4127.6923,4165.1282,4128.7179,4161.0256,4121.5385,4157.4359
4115.3846,4134.359,4132.3077,4087.6923,4146.1538,4120,4124.6154,4164.1026,4130.2564,4159.4872,4129.2308,4152.3077
4130.2564,4142.0513,4129.2308,4087.6923,4127.6923,4121.5385,4125.641,4176.4103,4129.7436,4162.0513,4128.7179,4149.2308
4117.9487,4130.7692,4132.8205,4088.7179,4120.5128,4115.8974,4130.7692,4181.0256,4123.0769,4159.4872,4118.4615,4145.641
4100.5128,4124.6154,4128.2051,4092.8205,4135.3846,4108.2051,4128.2051,4174.8718,4122.5641,4154.359,4113.8462,4147.6923
4110.7692,4137.9487,4126.6667,4094.8718,4146.6667,4114.8718,4121.5385,4170.2564,4133.3333,4157.4359,4118.9744,4155.8974
4116.9231,4146.6667,4130.7692,4086.6667,4143.5897,4122.5641,4123.0769,4168.2051,4132.3077,4163.0769,4117.9487,4155.3846
4107.1795,4133.8462,4126.6667,4080.5128,4143.0769,4118.4615,4122.5641,4165.1282,4125.1282,4157.9487,4110.7692,4147.6923
4103.5897,4113.8462,4118.4615,4077.9487,4145.1282,4113.8462,4115.8974,4156.4103,4124.1026,4146.1538,4106.6667,4142.5641
4108.7179,4110.7692,4120,4071.7949,4153.3333,4120,4116.4103,4151.7949,4124.1026,4144.1026,4105.641,4144.1026
4114.359,4126.6667,4123.0769,4074.8718,4154.8718,4128.7179,4121.5385,4157.9487,4126.1538,4149.2308,4107.6923,4151.7949
4112.8205,4133.3333,4123.0769,4084.6154,4140.5128,4128.2051,4125.1282,4167.1795,4128.2051,4148.7179,4107.1795,4160
4110.7692,4124.1026,4125.1282,4081.5385,4139.4872,4121.0256,4125.641,4172.8205,4132.3077,4144.1026,4110.2564,4163.5897
4109.2308,4121.5385,4123.5897,4074.359,4149.7436,4115.3846,4124.1026,4169.7436,4134.359,4137.9487,4115.3846,4151.7949
4111.7949,4134.359,4124.1026,4080.5128,4145.1282,4120,4128.7179,4165.641,4132.3077,4138.9744,4105.1282,4148.2051
4111.2821,4135.3846,4125.1282,4087.6923,4143.5897,4130.2564,4137.4359,4173.8462,4133.3333,4144.6154,4090.7692,4163.5897
4092.8205,4118.4615,4117.4359,4084.1026,4157.4359,4135.8974,4140,4179.4872,4124.1026,4141.0256,4090.2564,4153.8462
4089.7436,4128.2051,4112.8205,4078.4615,4158.9744,4134.8718,4137.9487,4181.0256,4112.3077,4134.8718,4102.5641,4134.8718
4116.4103,4152.3077,4114.359,4074.8718,4142.0513,4127.6923,4131.2821,4187.1795,4117.4359,4138.4615,4105.641,4147.6923
4127.6923,4144.6154,4111.2821,4071.7949,4135.8974,4117.9487,4121.5385,4186.1538,4124.6154,4147.1795,4106.6667,4168.7179
4114.8718,4133.8462,4112.8205,4071.7949,4147.6923,4116.9231,4120,4180.5128,4119.4872,4150.7692,4117.9487,4166.6667
4113.8462,4146.1538,4123.5897,4070.2564,4149.2308,4121.5385,4123.5897,4185.1282,4117.9487,4151.7949,4114.8718,4155.8974
4120.5128,4149.7436,4124.1026,4063.5897,4140,4116.4103,4122.5641,4188.7179,4125.641,4156.9231,4098.9744,4149.7436
4105.1282,4131.2821,4109.7436,4056.9231,4127.6923,4109.7436,4118.4615,4171.7949,4117.4359,4150.7692,4082.5641,4138.9744
4099.4872,4126.6667,4108.7179,4061.0256,4125.1282,4113.8462,4120.5128,4163.0769,4104.1026,4143.5897,4084.6154,4142.5641
4114.8718,4132.8205,4116.4103,4068.7179,4137.4359,4112.3077,4122.5641,4173.8462,4107.6923,4146.1538,4101.0256,4154.8718
4112.3077,4126.1538,4110.2564,4064.6154,4135.8974,4100.5128,4113.8462,4168.2051,4112.3077,4141.5385,4090.2564,4144.6154
4103.5897,4123.0769,4103.5897,4054.359,4125.641,4101.5385,4104.1026,4160,4115.3846,4134.359,4068.2051,4142.5641
4099.4872,4123.5897,4109.2308,4053.8462,4128.2051,4106.6667,4107.1795,4171.2821,4117.4359,4137.9487,4070.7692,4155.3846
4093.8462,4113.3333,4114.8718,4060.5128,4131.7949,4107.6923,4118.4615,4185.641,4118.4615,4146.1538,4088.2051,4151.7949
4103.5897,4111.7949,4121.0256,4068.2051,4132.3077,4115.8974,4125.1282,4192.3077,4125.641,4149.2308,4099.4872,4146.1538
