"AF3","F7","F3","FC5","T7","P7","O1","O2","FC6","F4","F8","AF4"
4094.359,3908.7179,4114.8718,4189.7436,4105.1282,4118.9744,4106.6667,4106.1538,4156.9231,4096.9231,4085.641,4081.5385
4118.9744,3937.9487,4138.4615,4212.3077,4114.8718,4102.0513,4107.1795,4116.9231,4176.4103,4109.7436,4109.7436,4105.641
4121.5385,3945.1282,4147.1795,4221.0256,4113.8462,4090.2564,4103.0769,4115.8974,4172.8205,4111.2821,4110.7692,4111.2821
4116.9231,3930.2564,4138.9744,4206.1538,4119.4872,4106.1538,4106.1538,4111.2821,4156.4103,4111.7949,4096.9231,4102.0513
4110.7692,3912.8205,4128.7179,4191.2821,4124.6154,4116.9231,4107.1795,4097.4359,4140.5128,4111.2821,4083.5897,4089.2308
4112.3077,3909.2308,4132.3077,4190.2564,4120,4108.2051,4106.1538,4104.1026,4151.2821,4116.4103,4093.8462,4094.8718
4115.8974,3909.7436,4138.9744,4193.8462,4127.1795,4100,4105.1282,4114.359,4158.4615,4124.1026,4100.5128,4102.5641
4109.2308,3906.6667,4135.3846,4189.7436,4132.8205,4094.359,4103.5897,4097.9487,4137.9487,4122.5641,4081.5385,4093.3333
4101.0256,3901.5385,4125.641,4182.0513,4122.5641,4096.9231,4107.1795,4090.2564,4130.2564,4116.9231,4073.3333,4087.1795
4098.4615,3894.359,4121.5385,4180,4117.9487,4096.4103,4104.1026,4097.9487,4133.8462,4114.8718,4077.9487,4085.641
4104.1026,3902.5641,4124.1026,4184.1026,4130.2564,4084.6154,4096.9231,4098.4615,4128.2051,4117.4359,4077.4359,4084.6154
4106.1538,3907.1795,4121.0256,4178.9744,4124.1026,4078.4615,4098.9744,4089.2308,4122.0513,4119.4872,4072.3077,4082.0513
4102.0513,3885.641,4116.4103,4166.1538,4108.2051,4084.1026,4103.5897,4085.1282,4123.0769,4118.9744,4068.7179,4080.5128
4108.2051,3873.8462,4120,4165.1282,4125.641,4090.2564,4104.1026,4094.8718,4123.5897,4123.5897,4070.7692,4087.6923
4120.5128,3887.1795,4128.7179,4170.2564,4133.3333,4092.3077,4110.7692,4101.5385,4123.0769,4129.2308,4078.4615,4094.8718
4130.7692,3898.4615,4141.5385,4175.3846,4126.1538,4096.9231,4117.4359,4100.5128,4133.8462,4140,4091.2821,4104.1026
4130.7692,3889.7436,4149.2308,4176.9231,4137.4359,4094.8718,4106.6667,4097.4359,4137.4359,4143.5897,4091.2821,4107.6923
4123.0769,3879.4872,4143.5897,4167.6923,4137.9487,4093.3333,4103.0769,4092.8205,4125.1282,4135.8974,4081.5385,4101.0256
4129.2308,3891.2821,4147.1795,4168.7179,4125.641,4094.359,4111.2821,4096.9231,4131.7949,4141.0256,4094.8718,4106.6667
4137.9487,3894.359,4154.359,4174.359,4129.7436,4081.0256,4107.1795,4102.0513,4138.9744,4147.6923,4105.1282,4111.7949
4132.8205,3883.5897,4146.6667,4167.6923,4141.0256,4076.9231,4108.2051,4098.9744,4125.641,4145.641,4090.2564,4106.1538
4117.4359,3875.3846,4135.3846,4154.359,4129.7436,4085.641,4116.4103,4094.8718,4115.3846,4136.4103,4073.3333,4093.3333
4105.641,3856.4103,4132.3077,4147.1795,4113.8462,4089.2308,4110.7692,4096.4103,4107.6923,4127.1795,4062.5641,4077.4359
4116.4103,3853.8462,4138.4615,4153.8462,4116.9231,4090.2564,4109.7436,4108.7179,4109.7436,4135.3846,4066.6667,4091.7949
4108.2051,3851.7949,4136.9231,4157.4359,4104.6154,4086.6667,4115.8974,4104.1026,4109.2308,4137.4359,4064.6154,4095.8974
4088.2051,3829.2308,4128.7179,4150.7692,4093.3333,4079.4872,4112.8205,4094.359,4098.9744,4129.7436,4054.8718,4073.3333
4120.5128,3846.6667,4135.3846,4147.1795,4120.5128,4080.5128,4109.7436,4110.2564,4098.4615,4135.3846,4063.0769,4085.641
4148.7179,3881.5385,4143.0769,4147.6923,4123.0769,4083.0769,4114.359,4120.5128,4106.6667,4147.1795,4077.4359,4113.8462
4127.1795,3860,4139.4872,4145.1282,4098.4615,4087.1795,4116.4103,4115.8974,4114.359,4149.7436,4085.641,4113.3333
4121.0256,3840.5128,4141.5385,4140,4117.4359,4091.7949,4118.4615,4116.4103,4118.4615,4147.6923,4084.1026,4105.641
4149.7436,3882.0513,4152.8205,4138.4615,4154.8718,4084.1026,4127.1795,4131.2821,4128.2051,4157.9487,4088.2051,4120.5128
4140.5128,3875.8974,4143.5897,4125.641,4145.1282,4085.641,4121.5385,4135.8974,4127.6923,4156.4103,4093.8462,4113.3333
4098.9744,3809.2308,4121.0256,4106.1538,4117.9487,4106.1538,4108.7179,4112.3077,4095.8974,4131.7949,4070.2564,4074.359
4116.9231,3833.8462,4136.4103,4117.9487,4114.8718,4106.1538,4114.8718,4106.6667,4095.3846,4135.3846,4073.8462,4093.8462
4164.6154,3904.6154,4169.7436,4141.5385,4115.8974,4077.9487,4125.641,4125.1282,4131.7949,4163.0769,4114.359,4148.7179
4160.5128,3894.8718,4167.1795,4124.6154,4143.0769,4081.0256,4120.5128,4117.9487,4127.1795,4164.1026,4103.0769,4148.7179
4269.7436,3842.0513,4176.9231,4049.7436,4123.5897,4069.2308,4102.0513,4086.1538,4135.3846,4159.4872,4181.5385,4311.7949
4227.6923,3771.2821,4174.8718,4053.3333,4073.3333,4059.4872,4096.4103,4087.1795,4105.1282,4149.2308,4155.8974,4267.1795
4212.8205,3724.6154,4169.2308,4053.8462,4076.9231,4053.3333,4090.7692,4075.8974,4087.1795,4143.0769,4147.1795,4262.0513
4246.6667,3747.6923,4159.4872,4019.4872,4120.5128,4060,4094.8718,4078.4615,4107.6923,4152.8205,4171.7949,4302.0513
4251.2821,3717.4359,4158.9744,3992.3077,4101.5385,4060.5128,4098.9744,4091.7949,4124.1026,4166.1538,4190.2564,4325.1282
4241.0256,3676.4103,4164.6154,3996.9231,4083.0769,4058.9744,4090.7692,4086.1538,4119.4872,4169.7436,4190.2564,4359.4872
4243.5897,3689.7436,4165.1282,3994.8718,4114.8718,4065.641,4086.1538,4075.8974,4113.3333,4167.1795,4184.1026,4402.5641
4240,3662.5641,4167.6923,3991.7949,4115.3846,4069.7436,4096.4103,4085.1282,4108.7179,4164.6154,4163.5897,4419.4872
4244.6154,3627.1795,4176.4103,3995.8974,4090.7692,4069.7436,4104.6154,4081.5385,4100,4163.5897,4130.2564,4449.2308
4280,3678.4615,4177.9487,3991.7949,4105.1282,4070.2564,4098.9744,4072.3077,4105.641,4168.7179,4125.641,4495.8974
4272.8205,3661.0256,4165.1282,3984.6154,4104.6154,4067.6923,4088.2051,4076.4103,4101.0256,4161.5385,4130.2564,4491.7949
4229.7436,3577.4359,4160.5128,3973.3333,4098.4615,4076.9231,4088.7179,4077.4359,4081.5385,4151.2821,4116.4103,4473.8462
4251.2821,3619.4872,4174.8718,3967.1795,4130.7692,4101.0256,4103.0769,4090.7692,4091.7949,4163.5897,4125.1282,4506.1538
4279.4872,3658.9744,4181.5385,3971.7949,4130.7692,4106.1538,4114.8718,4103.0769,4115.3846,4173.3333,4146.1538,4537.4359
4268.7179,3617.4359,4177.4359,3965.641,4111.7949,4088.7179,4112.8205,4099.4872,4116.4103,4170.7692,4142.0513,4547.1795
4263.0769,3604.1026,4172.3077,3946.6667,4109.7436,4086.1538,4102.0513,4089.7436,4091.2821,4164.6154,4110.7692,4542.5641
4240,3567.6923,4159.4872,3940.5128,4093.8462,4094.8718,4103.5897,4080,4057.9487,4148.7179,4077.9487,4511.2821
4221.0256,3530.2564,4157.9487,3939.4872,4090.7692,4085.641,4109.7436,4082.0513,4055.3846,4143.0769,4078.4615,4512.8205
4240,3576.9231,4165.641,3917.9487,4120,4081.5385,4107.1795,4087.1795,4063.5897,4150.7692,4091.7949,4554.8718
4251.2821,3606.1538,4163.5897,3907.1795,4134.359,4098.4615,4107.1795,4089.7436,4060,4155.3846,4092.3077,4561.5385
4225.1282,3554.359,4160,3913.3333,4113.3333,4100.5128,4107.6923,4086.1538,4059.4872,4147.1795,4085.641,4531.7949
4212.8205,3543.5897,4167.6923,3906.1538,4104.1026,4083.5897,4104.1026,4084.6154,4062.0513,4147.6923,4073.3333,4540
4230.7692,3594.359,4176.4103,3895.8974,4116.9231,4089.2308,4103.0769,4093.8462,4066.1538,4163.0769,4077.9487,4580
4220,3582.0513,4166.1538,3889.7436,4105.1282,4097.4359,4106.6667,4095.3846,4057.4359,4160.5128,4078.9744,4558.9744
4191.7949,3540,4150.2564,3875.8974,4092.3077,4091.2821,4108.7179,4090.7692,4045.1282,4152.3077,4052.8205,4524.1026
4193.3333,3550.7692,4150.7692,3866.1538,4101.5385,4092.3077,4107.1795,4096.9231,4061.0256,4159.4872,4046.6667,4543.0769
4194.8718,3561.5385,4151.2821,3860.5128,4095.3846,4097.4359,4109.7436,4100.5128,4074.359,4158.4615,4051.2821,4547.6923
4189.2308,3555.8974,4144.1026,3849.2308,4091.7949,4107.6923,4114.8718,4100.5128,4067.1795,4153.3333,4046.1538,4539.4872
4172.3077,3550.2564,4140.5128,3835.3846,4109.2308,4108.2051,4111.2821,4095.8974,4050.2564,4150.7692,4035.8974,4534.359
4147.1795,3538.4615,4136.9231,3832.3077,4102.0513,4091.7949,4103.5897,4079.4872,4034.359,4145.1282,4025.641,4508.2051
4163.0769,3547.6923,4137.4359,3842.5641,4080.5128,4081.5385,4107.1795,4077.9487,4035.3846,4152.3077,4032.3077,4507.6923
4181.0256,3568.7179,4137.4359,3835.8974,4085.1282,4086.1538,4116.4103,4091.2821,4035.8974,4159.4872,4040.5128,4512.8205
4162.5641,3568.2051,4129.2308,3819.4872,4085.1282,4089.7436,4118.4615,4094.359,4028.7179,4148.7179,4031.2821,4491.2821
4146.6667,3551.7949,4123.0769,3816.4103,4064.6154,4085.1282,4113.3333,4082.5641,4021.5385,4138.4615,4018.4615,4484.6154
4148.7179,3546.6667,4123.0769,3820,4057.9487,4086.6667,4109.7436,4076.4103,4015.3846,4135.8974,4021.5385,4484.1026
4143.0769,3549.2308,4127.6923,3821.0256,4062.5641,4086.1538,4108.7179,4082.5641,4012.8205,4135.3846,4028.2051,4469.7436
4140.5128,3554.359,4124.1026,3814.359,4055.8974,4076.9231,4106.6667,4076.9231,4003.5897,4134.8718,4023.5897,4466.1538
4155.3846,3568.2051,4120.5128,3814.8718,4044.6154,4071.7949,4106.1538,4070.7692,4002.0513,4141.0256,4031.2821,4469.7436
4157.9487,3569.7436,4125.1282,3828.2051,4034.359,4071.7949,4108.7179,4076.9231,4013.3333,4141.5385,4041.0256,4461.5385
4141.5385,3562.0513,4118.9744,3827.1795,4040,4083.0769,4111.2821,4079.4872,4011.7949,4134.8718,4032.3077,4444.6154
4141.5385,3566.6667,4105.1282,3808.7179,4064.1026,4100,4109.7436,4078.4615,3996.4103,4133.3333,4022.5641,4429.2308
4158.9744,3571.7949,4107.6923,3803.5897,4065.1282,4095.8974,4108.2051,4075.8974,4000,4138.9744,4032.3077,4432.8205
4155.8974,3570.2564,4116.9231,3818.9744,4032.8205,4075.3846,4109.2308,4071.7949,4016.4103,4143.0769,4046.1538,4432.8205
4140,3567.6923,4110.7692,3821.0256,4012.8205,4067.1795,4105.1282,4068.7179,3998.9744,4132.3077,4030.7692,4400
4146.6667,3568.7179,4110.2564,3814.8718,4011.7949,4069.7436,4097.9487,4069.2308,3983.5897,4128.2051,4025.641,4376.9231
4149.2308,3566.6667,4114.8718,3826.6667,4016.4103,4078.4615,4098.9744,4070.7692,4003.0769,4136.9231,4055.3846,4381.5385
4134.8718,3566.6667,4107.6923,3833.3333,4022.0513,4081.5385,4102.0513,4068.7179,4004.1026,4133.8462,4061.5385,4371.7949
4150.2564,3590.7692,4111.7949,3831.2821,4025.641,4071.7949,4096.4103,4071.7949,3988.2051,4132.8205,4050.7692,4365.1282
4164.6154,3607.1795,4114.359,3828.7179,4028.2051,4073.3333,4089.2308,4075.8974,3992.8205,4133.3333,4050.2564,4366.6667
4131.7949,3585.641,4100,3827.1795,4012.3077,4075.8974,4090.2564,4069.2308,3990.2564,4123.5897,4044.6154,4340
4125.641,3581.5385,4104.6154,3837.4359,3994.8718,4064.1026,4090.7692,4067.1795,3978.9744,4126.6667,4049.7436,4327.6923
4151.7949,3605.641,4119.4872,3844.1026,3997.9487,4056.4103,4088.7179,4065.641,3976.9231,4137.4359,4055.8974,4342.0513
4152.8205,3608.2051,4114.359,3843.0769,4006.6667,4057.9487,4090.7692,4059.4872,3980.5128,4135.3846,4044.6154,4336.4103
4133.3333,3595.3846,4100.5128,3842.0513,4003.5897,4062.5641,4092.3077,4063.0769,3980,4125.641,4043.0769,4305.1282
4118.9744,3592.8205,4092.3077,3835.3846,4002.0513,4070.2564,4087.6923,4058.4615,3958.4615,4117.4359,4036.9231,4274.359
4133.8462,3613.8462,4100,3844.6154,4009.2308,4069.7436,4086.6667,4051.2821,3952.8205,4124.1026,4032.3077,4284.1026
4137.4359,3612.8205,4108.7179,3854.8718,3987.6923,4060,4088.2051,4055.3846,3966.6667,4130.7692,4044.6154,4284.1026
4106.1538,3580.5128,4096.4103,3839.4872,3966.1538,4055.3846,4086.6667,4054.8718,3953.8462,4120.5128,4037.4359,4244.6154
4100.5128,3582.0513,4085.1282,3832.8205,3985.1282,4053.8462,4082.0513,4046.6667,3935.8974,4113.3333,4018.9744,4224.6154
4119.4872,3608.2051,4085.641,3841.5385,3995.8974,4050.7692,4077.9487,4039.4872,3942.0513,4114.359,4019.4872,4226.1538
4128.7179,3621.5385,4090.7692,3844.1026,3988.2051,4051.2821,4076.4103,4047.1795,3951.2821,4120.5128,4029.7436,4234.359
4126.1538,3630.2564,4097.9487,3848.2051,3990.7692,4049.7436,4074.359,4056.4103,3946.1538,4126.6667,4032.3077,4246.1538
4117.9487,3632.8205,4096.4103,3858.4615,3991.7949,4048.7179,4074.8718,4048.2051,3943.0769,4126.1538,4035.3846,4234.8718
4109.7436,3625.641,4093.3333,3867.1795,3978.4615,4052.3077,4077.9487,4040.5128,3944.6154,4119.4872,4043.0769,4210.2564
4097.4359,3618.4615,4092.8205,3868.7179,3971.2821,4049.7436,4075.8974,4038.9744,3933.3333,4112.3077,4032.3077,4198.9744
4088.2051,3616.9231,4086.1538,3868.7179,3983.5897,4051.7949,4072.3077,4036.4103,3920.5128,4105.641,4016.9231,4189.7436
4094.359,3616.9231,4076.9231,3870.2564,3989.2308,4049.7436,4071.7949,4026.1538,3914.8718,4096.9231,4011.2821,4171.2821
4100,3622.5641,4074.359,3870.7692,3979.4872,4041.0256,4068.2051,4022.0513,3912.3077,4093.8462,4006.1538,4165.641
4094.359,3631.7949,4073.3333,3875.8974,3979.4872,4049.7436,4065.1282,4030.7692,3914.8718,4098.9744,4013.8462,4169.2308
4087.1795,3630.7692,4068.2051,3884.1026,3977.9487,4053.8462,4063.5897,4030.7692,3914.359,4094.8718,4021.5385,4155.3846
4081.0256,3625.641,4067.6923,3881.5385,3967.6923,4045.1282,4062.0513,4030.2564,3916.4103,4088.2051,4021.0256,4140.5128
4071.7949,3625.1282,4074.359,3880.5128,3967.1795,4046.1538,4066.1538,4034.8718,3926.6667,4089.7436,4027.1795,4142.5641
4078.4615,3631.2821,4078.9744,3891.2821,3978.9744,4052.8205,4073.3333,4031.2821,3925.641,4097.4359,4027.1795,4151.2821
4091.2821,3643.0769,4073.3333,3896.4103,3990.2564,4054.359,4073.8462,4025.641,3915.8974,4097.9487,4017.4359,4150.7692
4078.9744,3638.9744,4063.0769,3895.3846,3982.0513,4054.359,4072.3077,4025.1282,3903.5897,4085.641,4014.359,4126.6667
4070.2564,3636.9231,4069.7436,3905.1282,3965.1282,4052.8205,4076.9231,4038.4615,3905.1282,4083.0769,4019.4872,4111.2821
4081.5385,3655.8974,4082.5641,3914.359,3973.8462,4054.359,4076.9231,4055.8974,3920.5128,4092.8205,4026.6667,4126.6667
4078.9744,3661.0256,4080,3915.8974,3990.7692,4061.5385,4065.1282,4049.7436,3922.5641,4092.8205,4037.4359,4129.2308
4070.7692,3654.359,4077.9487,3927.1795,3981.5385,4055.8974,4053.8462,4032.8205,3911.7949,4088.2051,4041.0256,4108.2051
4082.0513,3666.6667,4083.5897,3937.4359,3971.7949,4043.5897,4055.8974,4037.9487,3905.641,4090.2564,4030.7692,4104.6154
4098.9744,3686.1538,4085.1282,3941.0256,3984.6154,4046.6667,4063.5897,4056.4103,3909.7436,4094.8718,4039.4872,4122.0513
4091.7949,3684.6154,4082.5641,3946.6667,3990.2564,4052.3077,4061.0256,4055.8974,3914.8718,4095.8974,4052.3077,4123.5897
4072.8205,3682.0513,4078.4615,3949.2308,3987.1795,4052.8205,4059.4872,4044.6154,3909.2308,4094.8718,4045.1282,4113.3333
4073.8462,3696.4103,4075.8974,3951.2821,4001.0256,4068.2051,4068.7179,4049.2308,3909.7436,4092.3077,4046.1538,4116.4103
4084.1026,3704.6154,4079.4872,3955.3846,4001.5385,4074.8718,4073.3333,4053.8462,3918.9744,4092.8205,4055.8974,4122.0513
4093.8462,3707.6923,4089.2308,3970.7692,3990.2564,4058.4615,4076.4103,4049.2308,3922.5641,4101.5385,4055.3846,4132.3077
4088.2051,3709.2308,4090.2564,3987.1795,4003.0769,4061.0256,4083.0769,4049.2308,3916.4103,4101.0256,4053.3333,4135.8974
4070.2564,3703.0769,4084.1026,3982.0513,4007.6923,4075.8974,4083.5897,4049.2308,3911.7949,4091.7949,4052.3077,4117.4359
4082.5641,3715.8974,4089.7436,3974.8718,3995.3846,4065.1282,4077.4359,4050.7692,3923.0769,4098.4615,4061.5385,4117.9487
4094.8718,3731.2821,4095.3846,3981.0256,3993.3333,4054.359,4073.8462,4054.359,3931.7949,4105.641,4073.8462,4126.1538
4067.1795,3712.8205,4087.1795,3984.1026,4010.7692,4070.7692,4069.7436,4048.2051,3922.0513,4096.4103,4064.1026,4106.6667
4062.0513,3701.5385,4083.0769,3983.0769,4015.3846,4074.8718,4067.6923,4047.6923,3918.9744,4093.8462,4057.4359,4101.5385
4083.0769,3705.1282,4087.1795,3991.7949,3995.8974,4059.4872,4075.8974,4055.8974,3925.1282,4102.0513,4060.5128,4108.7179
4072.8205,3697.4359,4085.641,3997.4359,4007.6923,4070.2564,4078.9744,4049.2308,3922.0513,4098.4615,4052.3077,4097.4359
4062.0513,3702.5641,4087.1795,3994.8718,4030.2564,4078.9744,4072.8205,4037.4359,3920.5128,4091.7949,4053.3333,4098.9744
4081.0256,3722.5641,4096.9231,4004.6154,4020,4062.0513,4074.8718,4042.5641,3936.9231,4100,4077.9487,4112.3077
4089.2308,3727.1795,4098.9744,4017.9487,4015.8974,4061.5385,4078.4615,4049.7436,3946.1538,4103.5897,4087.1795,4109.2308
4076.9231,3710.2564,4093.3333,4021.5385,4016.4103,4076.9231,4074.8718,4046.1538,3931.7949,4087.6923,4067.1795,4097.9487
4076.4103,3702.5641,4091.7949,4027.6923,4006.6667,4077.9487,4070.7692,4047.6923,3930.2564,4082.0513,4064.6154,4093.8462
4079.4872,3709.7436,4088.7179,4025.641,4014.8718,4079.4872,4065.1282,4046.1538,3941.5385,4083.5897,4071.7949,4088.7179
4078.9744,3721.5385,4085.641,4017.9487,4029.7436,4084.6154,4066.1538,4041.5385,3940,4078.9744,4071.7949,4086.1538
4090.7692,3735.3846,4092.3077,4030.2564,4023.0769,4078.4615,4072.3077,4047.6923,3944.1026,4082.5641,4081.0256,4095.3846
4080,3731.2821,4087.1795,4038.4615,4015.3846,4069.7436,4067.6923,4044.1026,3945.641,4081.0256,4074.8718,4085.641
4050.7692,3715.8974,4074.8718,4026.1538,4019.4872,4073.3333,4062.0513,4032.3077,3930.2564,4067.6923,4052.3077,4060
4058.9744,3718.4615,4080.5128,4028.2051,4014.8718,4080.5128,4071.2821,4037.4359,3926.1538,4065.1282,4051.7949,4057.4359
4076.4103,3729.7436,4085.1282,4038.9744,4005.641,4084.6154,4078.9744,4046.1538,3933.8462,4071.7949,4066.1538,4061.5385
4065.1282,3735.8974,4077.4359,4036.9231,4020,4087.1795,4073.3333,4043.0769,3931.2821,4072.3077,4070.7692,4046.6667
4053.8462,3736.4103,4081.0256,4037.9487,4021.5385,4076.4103,4071.7949,4043.0769,3929.2308,4070.2564,4068.7179,4041.5385
4054.8718,3727.1795,4088.2051,4045.641,4000.5128,4076.9231,4075.8974,4050.7692,3937.9487,4069.7436,4068.7179,4053.3333
4052.3077,3721.5385,4075.8974,4045.641,4009.7436,4090.7692,4071.7949,4044.6154,3931.7949,4062.5641,4068.2051,4042.0513
4052.3077,3743.0769,4068.7179,4046.6667,4033.8462,4089.2308,4070.2564,4033.3333,3924.6154,4062.5641,4074.359,4021.0256
4070.7692,3773.3333,4088.7179,4060.5128,4027.6923,4080.5128,4077.9487,4050.7692,3953.3333,4075.3846,4094.8718,4041.0256
4070.2564,3764.1026,4092.3077,4064.6154,4022.0513,4082.5641,4072.8205,4054.359,3955.8974,4072.3077,4087.1795,4054.8718
4044.6154,3742.5641,4072.8205,4056.4103,4040,4095.3846,4063.5897,4027.1795,3924.1026,4057.4359,4060,4023.5897
4037.9487,3748.2051,4076.4103,4064.1026,4036.9231,4098.9744,4071.2821,4028.2051,3928.2051,4059.4872,4068.7179,4012.3077
4045.1282,3755.8974,4088.7179,4073.8462,4022.5641,4091.7949,4076.9231,4047.1795,3948.2051,4066.6667,4081.5385,4038.4615
4040,3757.9487,4077.4359,4066.6667,4032.8205,4087.6923,4069.2308,4037.9487,3939.4872,4062.5641,4069.2308,4041.0256
4040.5128,3768.2051,4068.7179,4064.6154,4032.3077,4092.3077,4068.2051,4027.6923,3932.3077,4059.4872,4067.1795,4007.6923
4063.5897,3787.1795,4084.1026,4080,4020,4089.7436,4071.7949,4040,3940.5128,4068.7179,4075.3846,4008.7179
4069.7436,3796.4103,4092.8205,4088.7179,4031.2821,4078.4615,4065.1282,4040,3937.9487,4071.2821,4070.7692,4037.9487
4050.2564,3785.641,4089.7436,4082.0513,4035.3846,4079.4872,4065.641,4033.3333,3941.5385,4067.6923,4076.9231,4032.3077
4052.8205,3783.0769,4094.359,4084.1026,4026.1538,4092.3077,4075.8974,4052.3077,3955.8974,4074.8718,4090.7692,4023.5897
4049.7436,3783.5897,4085.1282,4083.5897,4037.9487,4107.6923,4070.2564,4056.9231,3942.0513,4069.2308,4071.7949,4018.9744
4030.2564,3777.9487,4070.2564,4077.4359,4047.6923,4103.5897,4066.1538,4041.0256,3920,4055.8974,4050.7692,3996.4103
4036.4103,3792.3077,4083.5897,4084.1026,4027.1795,4083.0769,4073.3333,4046.1538,3930.7692,4063.0769,4067.6923,3987.1795
4046.6667,3804.1026,4102.0513,4097.9487,4017.9487,4077.4359,4072.3077,4052.3077,3937.9487,4074.359,4075.3846,3997.9487
4046.6667,3801.5385,4101.0256,4104.6154,4042.0513,4086.6667,4064.1026,4048.2051,3931.7949,4074.8718,4068.2051,4007.6923
4045.1282,3806.1538,4094.359,4099.4872,4050.7692,4102.0513,4064.6154,4048.7179,3932.3077,4069.2308,4068.7179,3996.4103
4046.6667,3813.3333,4094.359,4092.8205,4042.0513,4115.8974,4066.6667,4049.2308,3931.7949,4070.2564,4064.1026,3989.2308
4055.8974,3823.0769,4103.5897,4097.9487,4042.0513,4104.1026,4067.6923,4058.4615,3945.641,4084.1026,4079.4872,4008.2051
4052.3077,3829.2308,4105.641,4107.6923,4032.3077,4084.1026,4076.9231,4068.7179,3952.3077,4088.7179,4093.3333,4006.6667
4040.5128,3824.1026,4096.4103,4111.7949,4024.6154,4096.9231,4076.9231,4058.4615,3939.4872,4074.8718,4075.3846,3976.9231
4039.4872,3819.4872,4093.3333,4112.8205,4040,4102.5641,4062.5641,4044.6154,3935.8974,4066.1538,4062.5641,3967.1795
4050.7692,3836.4103,4102.5641,4114.359,4056.9231,4081.5385,4059.4872,4051.2821,3945.1282,4075.3846,4078.4615,3984.6154
4057.9487,3852.3077,4104.1026,4115.8974,4054.8718,4087.1795,4069.2308,4061.0256,3949.7436,4083.5897,4083.0769,3994.359
4048.2051,3843.5897,4091.7949,4111.2821,4048.7179,4109.2308,4073.8462,4058.9744,3943.5897,4080,4069.7436,3986.1538
4041.0256,3845.641,4093.3333,4115.8974,4052.3077,4107.1795,4077.4359,4063.5897,3941.5385,4084.6154,4082.5641,3981.5385
4048.2051,3861.5385,4103.5897,4131.2821,4054.359,4103.5897,4085.641,4069.2308,3947.1795,4088.2051,4092.3077,3986.1538
4052.8205,3862.5641,4101.0256,4131.7949,4053.3333,4103.5897,4083.0769,4065.641,3948.7179,4082.0513,4081.0256,3982.5641
4047.6923,3861.5385,4092.3077,4120,4046.1538,4096.9231,4071.7949,4067.6923,3944.6154,4081.5385,4080.5128,3972.3077
4041.0256,3861.5385,4087.1795,4113.8462,4032.8205,4096.4103,4072.3077,4071.2821,3938.9744,4084.1026,4081.5385,3965.641
4038.4615,3854.8718,4088.7179,4120.5128,4042.0513,4101.0256,4077.9487,4070.2564,3937.4359,4085.641,4077.9487,3967.6923
4044.6154,3864.1026,4103.5897,4130.7692,4064.1026,4101.0256,4074.8718,4074.359,3948.2051,4093.8462,4089.7436,3992.8205
4052.3077,3895.3846,4112.8205,4136.4103,4072.3077,4107.6923,4079.4872,4086.1538,3966.6667,4101.5385,4109.7436,4009.2308
4056.9231,3912.8205,4110.7692,4142.5641,4074.8718,4120,4093.3333,4099.4872,3980.5128,4103.5897,4124.1026,3995.8974
4054.359,3898.9744,4106.6667,4148.2051,4074.359,4118.9744,4090.7692,4103.0769,3972.8205,4101.0256,4117.9487,3988.7179
4043.5897,3890.7692,4104.1026,4147.6923,4074.8718,4116.4103,4082.5641,4093.8462,3957.4359,4095.8974,4093.8462,3993.8462
4049.2308,3905.1282,4102.0513,4148.2051,4085.1282,4120,4086.1538,4092.8205,3957.9487,4092.3077,4093.8462,3990.7692
4054.8718,3902.0513,4098.4615,4149.2308,4088.2051,4110.7692,4085.1282,4091.7949,3961.0256,4088.2051,4104.6154,3976.9231
4043.0769,3894.8718,4097.9487,4150.7692,4070.2564,4105.1282,4080.5128,4084.1026,3958.9744,4087.1795,4091.7949,3975.3846
4041.5385,3910.2564,4102.5641,4153.8462,4065.1282,4113.3333,4084.1026,4087.6923,3954.8718,4094.8718,4079.4872,3985.1282
4054.359,3923.0769,4104.1026,4153.8462,4085.1282,4119.4872,4082.0513,4095.8974,3960,4102.0513,4086.1538,3988.2051
4058.9744,3921.5385,4107.6923,4160.5128,4079.4872,4110.2564,4072.8205,4098.9744,3976.4103,4099.4872,4100.5128,3978.4615
4048.2051,3913.3333,4113.3333,4162.0513,4054.359,4098.9744,4072.8205,4092.8205,3969.2308,4094.8718,4094.359,3964.1026
4047.6923,3916.9231,4113.3333,4155.3846,4073.8462,4103.5897,4082.5641,4090.7692,3952.3077,4100.5128,4086.1538,3978.9744
4060.5128,3933.8462,4114.8718,4157.9487,4099.4872,4110.2564,4089.2308,4100,3962.5641,4105.1282,4102.0513,3997.4359
4049.7436,3935.3846,4112.8205,4160,4084.1026,4109.2308,4085.641,4097.9487,3970.7692,4097.4359,4108.7179,3978.9744
4036.9231,3930.7692,4107.6923,4155.8974,4076.9231,4108.2051,4078.9744,4096.9231,3965.641,4093.8462,4100,3971.2821
4049.2308,3937.9487,4108.2051,4157.9487,4084.1026,4106.6667,4077.9487,4109.7436,3969.7436,4098.4615,4100,3987.6923
4063.0769,3954.8718,4111.7949,4164.6154,4078.9744,4108.2051,4082.5641,4117.4359,3984.1026,4102.5641,4108.7179,3988.2051
4053.8462,3960,4106.1538,4160,4087.6923,4120,4087.6923,4109.7436,3986.1538,4097.4359,4104.6154,3972.8205
4044.6154,3952.3077,4100,4157.9487,4099.4872,4116.9231,4086.6667,4104.1026,3976.9231,4095.3846,4096.9231,3976.9231
4053.3333,3956.4103,4105.1282,4169.2308,4089.2308,4103.0769,4081.5385,4110.7692,3978.9744,4102.0513,4104.6154,3991.7949
4047.6923,3956.4103,4103.5897,4168.7179,4080,4109.7436,4082.5641,4109.7436,3975.8974,4098.4615,4105.1282,3974.8718
4043.0769,3948.2051,4104.6154,4161.5385,4085.1282,4122.5641,4089.7436,4103.5897,3972.8205,4095.3846,4101.0256,3965.641
4061.5385,3960,4113.8462,4168.2051,4095.3846,4112.3077,4087.6923,4105.1282,3993.3333,4104.1026,4109.2308,3996.4103
4072.3077,3977.4359,4109.7436,4169.7436,4090.2564,4100.5128,4077.9487,4104.1026,4009.2308,4107.1795,4116.4103,4012.3077
4072.3077,3982.0513,4103.0769,4158.4615,4078.9744,4110.7692,4075.3846,4097.4359,4001.0256,4104.6154,4123.0769,4011.7949
4090.7692,3997.9487,4112.8205,4164.6154,4077.9487,4111.2821,4081.0256,4100.5128,4001.5385,4114.8718,4139.4872,4042.5641
4130.7692,4024.1026,4132.8205,4194.359,4082.0513,4092.8205,4082.0513,4122.5641,4029.7436,4133.8462,4167.1795,4076.4103
4138.4615,4025.1282,4129.7436,4203.5897,4090.7692,4097.4359,4074.8718,4123.0769,4024.6154,4127.1795,4158.9744,4061.5385
4124.6154,4024.1026,4112.8205,4190.2564,4093.8462,4113.8462,4073.3333,4098.9744,3991.7949,4112.3077,4125.1282,4049.7436
4138.9744,4049.2308,4117.9487,4204.1026,4087.1795,4111.7949,4077.4359,4107.6923,4000,4120,4133.3333,4082.0513
4128.7179,4049.7436,4124.6154,4218.9744,4076.4103,4108.2051,4082.5641,4120,4015.8974,4123.5897,4142.0513,4081.0256
4092.3077,4022.5641,4108.2051,4193.8462,4082.0513,4110.2564,4076.4103,4104.1026,4001.0256,4110.7692,4112.8205,4047.6923
4101.5385,4043.0769,4100.5128,4177.4359,4105.641,4103.5897,4060,4107.6923,3998.9744,4109.2308,4115.8974,4052.8205
4124.1026,4064.1026,4117.9487,4196.4103,4108.2051,4102.0513,4057.9487,4132.3077,4013.8462,4121.5385,4150.2564,4064.1026
4107.6923,4029.2308,4122.0513,4196.4103,4097.4359,4111.7949,4057.4359,4132.3077,4011.7949,4119.4872,4140.5128,4046.1538
4072.8205,4006.1538,4100,4165.641,4098.4615,4110.7692,4041.5385,4108.2051,3987.1795,4100,4097.4359,4012.3077
4052.3077,4027.6923,4091.2821,4160,4101.0256,4105.1282,4035.3846,4103.5897,3972.3077,4093.8462,4096.9231,3990.7692
4062.5641,4040.5128,4106.1538,4177.4359,4095.8974,4106.6667,4048.2051,4123.0769,3988.7179,4108.2051,4130.7692,4001.5385
4063.5897,4009.7436,4101.0256,4164.1026,4086.1538,4104.6154,4049.7436,4127.1795,3995.8974,4109.7436,4124.6154,4005.1282
4050.2564,4001.0256,4091.2821,4153.3333,4092.3077,4114.359,4054.359,4125.1282,3995.3846,4104.1026,4107.6923,3989.7436
4091.7949,4052.8205,4135.8974,4201.0256,4141.5385,4153.8462,4090.7692,4157.4359,4028.7179,4132.3077,4150.7692,4026.1538
4161.5385,4104.1026,4196.4103,4253.3333,4195.8974,4188.2051,4125.641,4203.5897,4081.0256,4173.8462,4212.8205,4094.8718
4170.2564,4103.5897,4204.1026,4252.8205,4185.1282,4189.7436,4125.1282,4213.8462,4111.7949,4181.5385,4231.7949,4104.6154
4142.5641,4070.7692,4180,4225.1282,4156.9231,4181.0256,4110.2564,4193.3333,4100,4164.1026,4215.3846,4071.2821
4143.0769,4069.2308,4173.8462,4210.2564,4180.5128,4182.5641,4107.1795,4192.8205,4086.6667,4160.5128,4209.2308,4061.5385
4147.1795,4080.5128,4174.8718,4206.1538,4188.2051,4183.0769,4110.2564,4211.2821,4095.8974,4164.6154,4214.359,4067.1795
4134.8718,4068.7179,4165.1282,4200.5128,4169.2308,4182.5641,4108.7179,4201.5385,4092.8205,4154.8718,4199.4872,4069.2308
4127.1795,4057.9487,4158.9744,4195.3846,4177.9487,4193.3333,4105.1282,4181.0256,4077.9487,4146.6667,4189.2308,4065.641
4111.2821,4042.0513,4156.4103,4190.2564,4166.6667,4190.2564,4104.6154,4183.0769,4081.5385,4143.0769,4195.8974,4049.2308
4089.7436,4018.4615,4144.6154,4182.0513,4138.4615,4164.1026,4096.9231,4182.0513,4075.8974,4131.7949,4178.4615,4030.7692
4076.4103,3998.4615,4116.9231,4154.359,4135.3846,4148.2051,4078.9744,4160,4043.0769,4109.7436,4142.5641,4008.7179
4072.8205,3988.2051,4098.9744,4138.4615,4121.5385,4158.4615,4071.2821,4148.7179,4038.4615,4101.5385,4138.4615,3995.8974
4080.5128,3990.7692,4110.2564,4160,4112.8205,4167.6923,4081.0256,4157.4359,4064.1026,4113.3333,4156.4103,4014.359
4086.6667,3999.4872,4125.1282,4170.2564,4125.641,4158.4615,4087.6923,4158.9744,4067.1795,4115.3846,4161.5385,4027.1795
4091.7949,4009.2308,4128.7179,4161.0256,4127.6923,4156.9231,4085.1282,4154.8718,4061.0256,4109.2308,4169.2308,4026.6667
4091.2821,4009.7436,4128.7179,4165.1282,4126.1538,4162.5641,4084.6154,4155.3846,4063.5897,4107.1795,4174.359,4036.9231
4085.641,4010.2564,4129.2308,4172.3077,4135.3846,4159.4872,4090.2564,4157.9487,4055.3846,4109.2308,4158.9744,4036.4103
4095.3846,4020.5128,4130.2564,4169.7436,4139.4872,4155.8974,4094.8718,4159.4872,4060,4115.8974,4160,4032.3077
4101.5385,4015.3846,4123.5897,4159.4872,4128.2051,4154.359,4089.7436,4146.1538,4072.3077,4112.8205,4169.2308,4034.359
4090.7692,4002.5641,4114.359,4155.8974,4120.5128,4156.9231,4085.1282,4139.4872,4063.0769,4105.641,4162.0513,4027.6923
4082.5641,3997.4359,4112.8205,4166.1538,4120,4162.5641,4088.7179,4147.6923,4056.4103,4104.6154,4156.4103,4019.4872
4081.0256,3991.7949,4114.8718,4164.1026,4127.6923,4162.5641,4092.8205,4146.1538,4067.6923,4109.7436,4160.5128,4025.641
4088.2051,4006.1538,4120,4154.8718,4138.4615,4157.4359,4089.2308,4147.6923,4076.4103,4113.8462,4169.2308,4038.9744
4095.8974,4026.6667,4126.1538,4164.1026,4124.1026,4154.8718,4086.1538,4154.359,4070.2564,4114.8718,4168.7179,4036.4103
4099.4872,4025.641,4131.7949,4179.4872,4111.7949,4157.4359,4092.3077,4147.1795,4073.8462,4120,4166.6667,4038.9744
4096.4103,4020,4126.6667,4170.2564,4115.8974,4155.8974,4089.2308,4134.359,4077.4359,4114.359,4165.641,4043.0769
4087.6923,4020,4115.3846,4151.7949,4121.0256,4148.7179,4083.0769,4124.1026,4063.0769,4097.9487,4157.9487,4018.4615
4088.2051,4022.5641,4123.0769,4158.9744,4137.9487,4158.4615,4094.359,4126.1538,4062.0513,4100,4160,4011.7949
4093.3333,4020.5128,4133.3333,4169.7436,4145.641,4175.3846,4104.6154,4135.3846,4072.8205,4107.1795,4162.5641,4036.9231
4090.7692,4017.9487,4125.641,4166.1538,4135.3846,4173.3333,4095.3846,4137.9487,4074.8718,4098.4615,4157.4359,4040
4089.7436,4021.0256,4121.0256,4163.5897,4129.7436,4164.6154,4087.1795,4131.7949,4075.8974,4091.2821,4160,4026.6667
4097.9487,4029.2308,4127.6923,4168.2051,4126.6667,4159.4872,4092.8205,4131.2821,4084.1026,4098.9744,4169.7436,4034.8718
4116.9231,4042.0513,4136.4103,4180,4125.641,4160.5128,4095.3846,4148.7179,4096.4103,4110.2564,4175.8974,4061.5385
4115.8974,4040.5128,4138.9744,4186.1538,4125.1282,4171.2821,4091.7949,4146.6667,4092.3077,4104.1026,4167.1795,4070.2564
4101.5385,4032.3077,4130.7692,4174.359,4129.2308,4180.5128,4090.7692,4121.0256,4075.3846,4090.2564,4156.9231,4050.7692
4109.2308,4042.0513,4121.5385,4161.0256,4142.5641,4173.3333,4090.2564,4119.4872,4078.4615,4090.7692,4164.1026,4040
4122.5641,4054.359,4125.1282,4164.6154,4149.2308,4162.0513,4092.3077,4136.4103,4090.2564,4096.9231,4169.2308,4054.359
4120,4056.4103,4134.8718,4173.8462,4148.2051,4168.2051,4101.0256,4143.0769,4094.8718,4096.4103,4170.2564,4067.1795
4120,4061.5385,4136.4103,4174.8718,4152.3077,4181.5385,4107.6923,4141.0256,4101.5385,4096.9231,4179.4872,4065.641
4130.7692,4067.6923,4138.9744,4177.9487,4155.8974,4180,4108.7179,4145.1282,4109.2308,4101.5385,4190.2564,4068.7179
4131.2821,4066.6667,4144.6154,4186.1538,4149.2308,4168.2051,4107.6923,4149.7436,4115.3846,4103.0769,4196.4103,4076.9231
4118.9744,4063.5897,4139.4872,4186.1538,4136.9231,4165.1282,4102.0513,4141.5385,4117.4359,4099.4872,4194.359,4071.2821
4106.6667,4060.5128,4130.2564,4178.4615,4138.9744,4178.9744,4098.4615,4132.8205,4116.4103,4094.8718,4187.6923,4055.3846
4102.5641,4053.3333,4125.641,4173.3333,4153.3333,4173.8462,4099.4872,4129.2308,4101.0256,4087.6923,4176.9231,4046.6667
4109.2308,4055.8974,4126.6667,4172.8205,4141.5385,4151.2821,4102.5641,4130.2564,4090.2564,4088.2051,4169.7436,4052.8205
4118.9744,4070.7692,4131.2821,4174.8718,4119.4872,4155.3846,4111.7949,4140.5128,4102.5641,4092.8205,4176.9231,4063.0769
4116.4103,4068.7179,4132.3077,4173.8462,4140,4169.7436,4117.4359,4146.6667,4106.6667,4088.7179,4177.9487,4059.4872
4120,4069.7436,4136.4103,4179.4872,4166.1538,4161.0256,4109.7436,4144.1026,4102.5641,4089.7436,4178.4615,4058.9744
4136.4103,4090.2564,4146.1538,4189.7436,4146.6667,4150.7692,4104.1026,4145.641,4108.7179,4098.9744,4192.8205,4076.9231
4129.2308,4092.3077,4142.0513,4185.641,4137.9487,4161.5385,4104.1026,4144.6154,4109.2308,4096.4103,4192.8205,4070.2564
4118.9744,4085.641,4132.8205,4182.5641,4167.1795,4168.7179,4095.8974,4136.9231,4106.1538,4088.7179,4182.0513,4054.359
4122.5641,4086.1538,4132.8205,4187.6923,4158.9744,4151.2821,4089.2308,4127.6923,4108.7179,4089.7436,4180.5128,4066.6667
4116.9231,4083.5897,4133.3333,4184.6154,4124.6154,4137.9487,4090.7692,4122.0513,4103.0769,4086.1538,4178.4615,4077.4359
4103.0769,4086.1538,4128.2051,4174.8718,4135.3846,4144.6154,4091.2821,4122.0513,4093.3333,4073.8462,4167.1795,4064.1026
4102.0513,4093.8462,4125.1282,4174.8718,4151.2821,4146.1538,4096.9231,4122.5641,4094.359,4071.2821,4158.4615,4057.4359
4112.3077,4094.359,4129.7436,4183.5897,4131.7949,4139.4872,4105.1282,4127.6923,4103.5897,4076.4103,4166.1538,4065.641
4110.2564,4084.1026,4130.7692,4177.9487,4126.6667,4144.1026,4107.1795,4129.7436,4098.4615,4072.3077,4165.641,4068.2051
4106.6667,4081.0256,4127.1795,4164.6154,4149.7436,4149.7436,4105.1282,4129.7436,4087.1795,4069.7436,4154.8718,4072.3077
4106.1538,4093.8462,4128.7179,4169.7436,4153.8462,4152.3077,4101.5385,4130.7692,4091.7949,4071.2821,4160,4064.6154
4098.4615,4101.0256,4128.7179,4185.1282,4141.0256,4158.9744,4094.359,4117.9487,4089.7436,4065.1282,4164.1026,4045.641
4120.5128,4109.2308,4136.9231,4194.8718,4141.5385,4150.7692,4095.3846,4114.8718,4094.8718,4071.7949,4172.3077,4078.4615
4145.641,4120.5128,4147.6923,4196.9231,4146.1538,4127.1795,4101.5385,4130.2564,4117.9487,4086.1538,4193.8462,4114.8718
4133.3333,4120.5128,4142.0513,4190.2564,4149.2308,4131.7949,4098.9744,4135.3846,4121.0256,4082.0513,4201.5385,4099.4872
4124.6154,4118.4615,4135.8974,4183.0769,4146.1538,4152.3077,4101.0256,4141.5385,4113.3333,4078.9744,4197.9487,4098.9744
4122.5641,4117.4359,4134.359,4178.9744,4140.5128,4149.7436,4107.6923,4151.2821,4117.9487,4081.0256,4192.8205,4101.5385
4105.641,4118.4615,4126.1538,4178.9744,4146.6667,4143.0769,4107.6923,4148.2051,4124.6154,4077.9487,4188.2051,4090.7692
4105.641,4128.2051,4122.0513,4186.6667,4151.7949,4140.5128,4107.1795,4150.2564,4127.6923,4079.4872,4192.3077,4102.5641
4112.8205,4126.6667,4122.5641,4189.2308,4150.7692,4137.4359,4106.1538,4154.359,4115.3846,4077.9487,4190.2564,4097.9487
4103.0769,4115.8974,4117.4359,4179.4872,4151.2821,4140.5128,4100,4140,4101.0256,4070.7692,4171.2821,4072.8205
4107.6923,4120,4117.4359,4178.4615,4141.0256,4139.4872,4102.0513,4134.359,4104.1026,4074.359,4163.5897,4082.5641
4118.9744,4124.6154,4119.4872,4182.5641,4143.0769,4132.8205,4107.1795,4146.1538,4111.2821,4078.9744,4174.8718,4101.5385
4098.4615,4108.2051,4109.2308,4166.6667,4154.8718,4133.8462,4104.1026,4142.5641,4097.4359,4064.6154,4168.7179,4083.0769
4093.3333,4108.2051,4111.2821,4162.5641,4151.7949,4138.4615,4104.6154,4140.5128,4094.359,4063.0769,4162.0513,4088.2051
4113.3333,4130.2564,4124.1026,4181.0256,4150.2564,4137.4359,4107.6923,4155.8974,4115.8974,4075.3846,4183.5897,4115.3846
4097.9487,4117.9487,4118.9744,4178.9744,4145.641,4141.5385,4104.6154,4145.1282,4105.641,4063.0769,4180.5128,4096.4103
4088.2051,4106.1538,4120.5128,4173.3333,4136.9231,4142.5641,4104.6154,4132.3077,4085.1282,4053.3333,4163.0769,4081.5385
4109.7436,4124.1026,4134.359,4180,4145.641,4133.3333,4113.3333,4157.4359,4096.9231,4064.1026,4174.8718,4100.5128
4105.641,4123.5897,4129.7436,4169.7436,4158.9744,4135.3846,4118.9744,4176.4103,4110.2564,4066.6667,4185.641,4098.4615
4098.4615,4115.3846,4124.6154,4166.1538,4151.2821,4140.5128,4114.359,4165.1282,4114.359,4063.0769,4181.0256,4092.3077
4102.0513,4116.4103,4127.1795,4176.4103,4134.359,4130.7692,4106.6667,4154.359,4112.3077,4063.5897,4181.0256,4096.4103
4097.9487,4118.9744,4123.5897,4171.7949,4143.0769,4129.7436,4106.6667,4157.9487,4107.6923,4063.5897,4190.7692,4091.7949
4102.5641,4123.0769,4125.1282,4163.0769,4164.6154,4142.5641,4105.641,4151.7949,4098.4615,4057.9487,4186.6667,4091.7949
4105.1282,4122.0513,4132.8205,4164.6154,4155.8974,4135.3846,4102.5641,4144.1026,4093.3333,4051.2821,4178.9744,4091.7949
4095.8974,4120,4133.3333,4174.359,4131.2821,4127.6923,4104.6154,4151.7949,4093.8462,4048.7179,4183.0769,4074.8718
4097.4359,4119.4872,4127.1795,4181.5385,4134.8718,4139.4872,4098.9744,4144.6154,4092.3077,4045.1282,4177.9487,4066.6667
4105.1282,4114.359,4129.7436,4175.8974,4144.1026,4139.4872,4096.4103,4135.8974,4100,4047.6923,4177.9487,4081.5385
4092.3077,4103.0769,4133.3333,4162.0513,4131.2821,4126.6667,4104.6154,4143.0769,4092.3077,4047.1795,4178.9744,4079.4872
4080.5128,4105.1282,4127.6923,4163.5897,4132.8205,4123.5897,4106.6667,4141.0256,4076.4103,4038.9744,4168.7179,4069.7436
4090.2564,4118.4615,4126.6667,4171.7949,4153.3333,4125.641,4098.4615,4136.4103,4090.7692,4039.4872,4173.8462,4084.6154
4093.3333,4114.8718,4132.8205,4167.1795,4135.8974,4125.641,4093.8462,4136.4103,4097.4359,4038.4615,4181.5385,4087.6923
4084.1026,4101.5385,4134.8718,4169.2308,4110.7692,4128.7179,4098.9744,4132.8205,4081.0256,4032.8205,4176.4103,4074.8718
4080.5128,4101.5385,4127.6923,4171.7949,4131.7949,4129.7436,4104.1026,4134.359,4079.4872,4032.3077,4175.8974,4069.7436
4083.0769,4113.3333,4123.5897,4161.5385,4155.3846,4126.1538,4106.6667,4142.5641,4086.1538,4033.3333,4172.3077,4072.8205
4080,4113.3333,4122.5641,4158.4615,4148.2051,4134.359,4105.641,4144.6154,4077.9487,4027.1795,4163.5897,4083.0769
4069.7436,4095.8974,4115.8974,4160,4140.5128,4141.0256,4104.1026,4142.0513,4073.8462,4019.4872,4167.6923,4072.8205
4072.8205,4087.1795,4116.4103,4161.0256,4142.5641,4131.2821,4107.1795,4144.1026,4078.4615,4023.5897,4168.7179,4051.7949
4084.6154,4087.1795,4128.7179,4169.2308,4137.9487,4126.1538,4106.6667,4144.1026,4083.0769,4030.2564,4157.4359,4071.2821
4080,4076.9231,4128.2051,4166.6667,4134.8718,4129.7436,4102.5641,4135.3846,4080,4025.641,4150.7692,4084.6154
4073.8462,4074.359,4117.9487,4151.7949,4143.5897,4129.7436,4096.4103,4128.2051,4080.5128,4024.1026,4153.3333,4062.0513
4090.2564,4086.1538,4126.1538,4156.9231,4143.0769,4127.1795,4092.3077,4127.1795,4098.9744,4033.8462,4165.641,4074.359
4108.7179,4092.3077,4134.359,4169.7436,4140,4131.2821,4095.3846,4130.7692,4106.6667,4037.9487,4174.359,4110.2564
4109.2308,4093.8462,4124.1026,4165.641,4139.4872,4134.359,4102.0513,4138.9744,4102.5641,4030.7692,4169.2308,4102.5641
4100.5128,4087.1795,4122.0513,4158.4615,4125.641,4134.359,4105.1282,4139.4872,4104.6154,4028.7179,4163.5897,4086.1538
4103.5897,4084.6154,4130.2564,4163.0769,4125.641,4134.8718,4105.641,4141.5385,4109.7436,4031.2821,4172.8205,4094.8718
4101.0256,4085.641,4124.1026,4162.5641,4146.6667,4133.8462,4107.1795,4148.2051,4102.5641,4024.6154,4169.2308,4088.2051
4083.5897,4068.2051,4112.3077,4152.3077,4143.0769,4134.8718,4107.1795,4131.7949,4087.1795,4014.8718,4143.5897,4076.4103
4088.2051,4063.5897,4111.7949,4146.6667,4131.2821,4139.4872,4104.6154,4109.2308,4080.5128,4008.7179,4130.2564,4080
4107.1795,4084.1026,4119.4872,4152.8205,4138.4615,4140,4103.5897,4113.8462,4086.6667,4012.8205,4146.1538,4089.7436
4128.2051,4103.0769,4137.4359,4174.359,4131.2821,4136.9231,4107.6923,4136.9231,4123.0769,4037.4359,4188.7179,4121.0256
4146.6667,4101.0256,4143.0769,4180,4112.3077,4141.0256,4105.1282,4134.8718,4140,4048.7179,4203.5897,4145.641
4154.8718,4095.3846,4134.8718,4159.4872,4126.6667,4146.1538,4095.3846,4112.3077,4119.4872,4039.4872,4180.5128,4143.5897
4167.6923,4112.3077,4141.0256,4151.7949,4155.8974,4141.5385,4091.2821,4114.359,4124.6154,4044.6154,4193.3333,4157.4359
4183.0769,4129.2308,4149.2308,4164.6154,4144.6154,4137.4359,4093.8462,4126.6667,4149.2308,4054.8718,4229.7436,4175.3846
4187.1795,4121.5385,4153.3333,4178.4615,4121.5385,4137.9487,4098.4615,4130.7692,4154.359,4055.8974,4235.3846,4180
4188.2051,4114.359,4165.641,4178.4615,4123.5897,4135.3846,4100,4139.4872,4156.4103,4058.9744,4228.2051,4192.3077
4185.641,4113.8462,4160,4165.1282,4121.5385,4135.3846,4100,4144.1026,4157.9487,4059.4872,4229.7436,4191.7949
4167.6923,4086.1538,4131.7949,4147.1795,4120.5128,4149.7436,4102.0513,4129.7436,4143.0769,4048.7179,4215.8974,4164.1026
4153.3333,4071.2821,4122.0513,4133.3333,4138.4615,4154.8718,4107.1795,4119.4872,4132.8205,4041.5385,4193.8462,4148.7179
4169.7436,4115.3846,4139.4872,4139.4872,4146.1538,4145.1282,4108.7179,4130.2564,4132.3077,4051.7949,4194.8718,4162.5641
4183.0769,4131.7949,4152.8205,4153.8462,4128.2051,4146.1538,4105.1282,4128.2051,4127.6923,4057.4359,4193.8462,4176.9231
4168.7179,4092.3077,4149.2308,4151.7949,4119.4872,4145.641,4103.5897,4111.7949,4130.2564,4052.8205,4187.1795,4168.2051
4150.7692,4087.6923,4146.6667,4137.9487,4133.3333,4144.1026,4098.4615,4114.8718,4138.9744,4052.3077,4197.4359,4145.641
4139.4872,4107.6923,4147.1795,4136.4103,4139.4872,4149.7436,4092.3077,4117.9487,4124.6154,4049.7436,4185.1282,4125.641
4142.5641,4108.2051,4147.1795,4136.9231,4140,4154.359,4099.4872,4107.1795,4106.6667,4048.2051,4157.4359,4131.7949
4151.7949,4102.5641,4149.2308,4123.5897,4144.1026,4153.3333,4109.7436,4108.7179,4124.1026,4053.8462,4176.9231,4140.5128
4140.5128,4086.6667,4148.7179,4112.3077,4143.0769,4160,4110.2564,4117.4359,4144.6154,4054.359,4202.0513,4125.641
4130.2564,4081.5385,4147.6923,4116.4103,4143.5897,4182.0513,4109.2308,4121.0256,4144.6154,4057.4359,4187.6923,4125.641
4124.1026,4082.0513,4142.5641,4108.7179,4149.7436,4189.7436,4108.7179,4122.5641,4132.8205,4061.0256,4168.7179,4127.6923
4123.0769,4077.4359,4140.5128,4095.3846,4148.7179,4172.3077,4102.5641,4125.641,4131.2821,4065.1282,4169.2308,4118.9744
4129.2308,4074.359,4146.1538,4101.5385,4141.5385,4160.5128,4099.4872,4123.0769,4140.5128,4073.3333,4176.4103,4126.1538
4105.1282,4052.3077,4133.3333,4096.9231,4124.1026,4166.1538,4095.8974,4114.359,4129.7436,4066.1538,4168.2051,4106.6667
4073.8462,4024.1026,4110.2564,4075.3846,4114.8718,4174.8718,4092.3077,4113.3333,4113.3333,4046.1538,4146.6667,4068.7179
4083.5897,4038.4615,4118.4615,4076.9231,4130.2564,4172.8205,4101.5385,4127.6923,4124.1026,4048.7179,4148.2051,4087.6923
4092.8205,4057.4359,4133.3333,4085.1282,4144.6154,4175.3846,4113.8462,4138.4615,4138.9744,4061.5385,4160.5128,4109.2308
4073.3333,4036.4103,4116.4103,4070.2564,4138.4615,4191.2821,4111.2821,4127.6923,4124.6154,4052.3077,4146.6667,4083.5897
4071.2821,4022.5641,4104.1026,4063.5897,4132.3077,4204.1026,4106.1538,4120.5128,4108.2051,4043.5897,4132.3077,4075.3846
4089.2308,4039.4872,4122.5641,4078.9744,4140,4205.641,4108.7179,4134.8718,4113.8462,4057.9487,4144.6154,4098.4615
4096.4103,4052.3077,4137.4359,4084.1026,4127.1795,4201.5385,4108.7179,4149.7436,4133.3333,4069.7436,4160.5128,4113.3333
4087.6923,4043.5897,4128.2051,4074.8718,4118.4615,4208.7179,4107.6923,4146.1538,4144.6154,4064.6154,4159.4872,4110.7692
4081.5385,4041.0256,4118.4615,4070.7692,4137.9487,4224.6154,4114.8718,4137.4359,4135.3846,4057.9487,4152.8205,4099.4872
4078.4615,4043.0769,4123.5897,4072.3077,4142.0513,4220.5128,4124.1026,4140.5128,4127.1795,4058.4615,4149.2308,4089.7436
4075.3846,4032.8205,4131.2821,4077.9487,4135.3846,4204.1026,4124.1026,4152.3077,4135.8974,4061.5385,4155.3846,4091.2821
4084.1026,4038.9744,4126.1538,4084.6154,4138.4615,4205.641,4124.1026,4158.4615,4131.2821,4063.0769,4158.4615,4099.4872
4095.3846,4060,4117.9487,4077.9487,4141.0256,4213.3333,4127.1795,4152.3077,4115.8974,4063.0769,4142.5641,4110.2564
4100.5128,4068.7179,4122.5641,4070.2564,4141.0256,4211.7949,4124.6154,4157.9487,4129.7436,4067.6923,4142.5641,4122.5641
4091.7949,4057.9487,4121.5385,4073.3333,4144.6154,4216.4103,4123.5897,4160,4134.8718,4069.7436,4142.0513,4120.5128
4086.1538,4060,4116.9231,4070.7692,4146.6667,4224.1026,4133.3333,4151.2821,4119.4872,4072.3077,4132.3077,4126.1538
4095.3846,4073.3333,4126.1538,4069.7436,4129.2308,4209.2308,4137.4359,4164.1026,4124.6154,4075.8974,4148.7179,4135.8974
4088.2051,4055.8974,4132.8205,4080.5128,4110.7692,4195.8974,4129.7436,4173.8462,4130.2564,4077.9487,4154.359,4120
4076.9231,4038.9744,4132.8205,4087.6923,4128.2051,4208.7179,4129.2308,4166.1538,4129.7436,4083.0769,4142.5641,4115.3846
4090.2564,4056.4103,4129.2308,4081.5385,4149.2308,4214.359,4136.9231,4163.0769,4125.641,4082.0513,4141.5385,4131.2821
4117.9487,4085.641,4127.1795,4082.5641,4144.6154,4204.1026,4138.4615,4170.7692,4117.9487,4082.5641,4147.1795,4142.5641
4120,4090.2564,4129.2308,4090.7692,4146.6667,4208.2051,4135.8974,4172.3077,4123.5897,4086.1538,4151.7949,4140.5128
4108.2051,4075.3846,4134.8718,4094.359,4143.0769,4214.8718,4138.9744,4167.6923,4124.6154,4084.1026,4153.8462,4139.4872
4116.9231,4072.8205,4143.5897,4102.5641,4130.2564,4204.6154,4138.4615,4170.7692,4111.2821,4086.1538,4146.1538,4150.2564
4126.6667,4077.4359,4141.5385,4094.8718,4135.3846,4199.4872,4131.2821,4175.3846,4119.4872,4094.359,4148.7179,4160
4136.9231,4085.1282,4141.5385,4086.1538,4130.7692,4203.0769,4128.2051,4183.0769,4145.1282,4100.5128,4180,4176.4103
4156.9231,4094.359,4154.8718,4107.6923,4121.0256,4194.8718,4124.6154,4189.2308,4147.6923,4102.0513,4193.8462,4208.2051
4168.7179,4105.1282,4162.0513,4116.4103,4144.1026,4193.3333,4122.0513,4186.6667,4139.4872,4104.6154,4184.1026,4221.5385
4182.5641,4127.6923,4156.9231,4104.1026,4166.6667,4206.1538,4129.7436,4188.2051,4145.1282,4108.2051,4191.2821,4217.4359
4188.7179,4125.641,4153.8462,4111.2821,4143.0769,4200.5128,4132.8205,4186.6667,4140,4103.5897,4186.1538,4218.9744
4174.8718,4094.8718,4157.4359,4121.5385,4122.0513,4187.1795,4129.2308,4182.5641,4126.6667,4098.9744,4171.7949,4219.4872
4169.2308,4104.6154,4157.9487,4106.6667,4137.4359,4193.3333,4132.8205,4185.1282,4130.7692,4101.5385,4178.9744,4211.7949
4175.8974,4130.2564,4154.359,4099.4872,4145.1282,4196.4103,4134.8718,4188.2051,4137.9487,4103.0769,4185.1282,4203.0769
4168.2051,4112.8205,4146.1538,4109.2308,4141.5385,4189.7436,4131.2821,4201.5385,4142.0513,4102.0513,4180.5128,4200
4150.2564,4093.3333,4136.9231,4101.5385,4146.1538,4194.8718,4133.3333,4208.2051,4132.8205,4100,4165.1282,4195.3846
4148.7179,4107.6923,4138.4615,4098.9744,4144.1026,4205.1282,4138.4615,4198.4615,4126.6667,4107.6923,4157.9487,4190.2564
4157.4359,4113.8462,4148.7179,4111.7949,4138.9744,4202.0513,4137.4359,4201.0256,4136.4103,4120,4171.7949,4185.641
4153.3333,4107.6923,4149.7436,4110.2564,4157.9487,4200.5128,4138.4615,4212.8205,4132.3077,4114.8718,4174.359,4171.2821
4142.0513,4110.2564,4137.4359,4096.4103,4168.7179,4206.6667,4138.9744,4214.359,4120,4107.1795,4159.4872,4154.359
4120.5128,4086.1538,4130.7692,4089.7436,4141.0256,4197.9487,4134.359,4213.3333,4120,4112.3077,4157.9487,4137.9487
4097.9487,4056.4103,4128.2051,4083.5897,4133.3333,4184.6154,4133.8462,4217.9487,4114.359,4110.2564,4158.4615,4123.5897
4105.1282,4077.4359,4127.6923,4084.6154,4152.8205,4188.7179,4137.9487,4229.7436,4111.7949,4106.1538,4154.359,4136.9231
4109.7436,4094.8718,4129.2308,4085.641,4146.1538,4196.4103,4141.5385,4245.1282,4126.1538,4115.3846,4156.9231,4153.8462
4093.8462,4071.7949,4129.2308,4073.8462,4143.5897,4200.5128,4140,4251.7949,4130.7692,4121.0256,4159.4872,4135.3846
4087.6923,4055.8974,4125.641,4069.2308,4156.4103,4205.1282,4137.9487,4243.0769,4112.3077,4113.8462,4151.7949,4110.2564
4085.641,4062.5641,4127.1795,4079.4872,4138.4615,4192.8205,4138.9744,4241.5385,4107.6923,4116.9231,4147.6923,4115.3846
4078.4615,4063.5897,4133.8462,4088.2051,4129.2308,4186.1538,4137.9487,4256.9231,4122.0513,4124.1026,4149.2308,4124.1026
4083.5897,4057.4359,4132.8205,4078.9744,4157.9487,4204.6154,4134.359,4267.1795,4117.4359,4118.9744,4139.4872,4121.0256
4098.4615,4068.2051,4137.9487,4076.4103,4163.0769,4204.1026,4135.8974,4282.5641,4113.8462,4127.1795,4144.6154,4132.3077
4092.3077,4078.4615,4146.1538,4091.7949,4138.9744,4177.9487,4138.9744,4304.1026,4133.8462,4140.5128,4164.1026,4137.9487
4077.9487,4064.1026,4136.9231,4087.1795,4132.8205,4176.9231,4140,4310.7692,4131.7949,4134.8718,4153.3333,4122.5641
4074.8718,4044.6154,4129.2308,4071.7949,4145.641,4196.4103,4145.1282,4311.7949,4112.8205,4127.1795,4138.4615,4118.4615
4066.1538,4040,4130.7692,4070.7692,4147.6923,4201.0256,4152.3077,4320,4116.9231,4127.1795,4143.5897,4113.8462
4065.1282,4047.1795,4132.8205,4081.5385,4137.4359,4197.9487,4157.9487,4343.5897,4131.2821,4128.7179,4144.1026,4115.3846
4072.3077,4047.1795,4133.8462,4089.7436,4131.7949,4199.4872,4155.8974,4383.5897,4125.1282,4128.2051,4136.9231,4131.7949
4066.6667,4039.4872,4131.2821,4084.6154,4145.1282,4195.3846,4144.6154,4451.2821,4107.1795,4123.5897,4133.3333,4123.5897
4071.2821,4052.8205,4129.7436,4079.4872,4157.9487,4189.2308,4137.4359,4551.7949,4113.8462,4126.1538,4138.9744,4124.1026
4086.6667,4069.2308,4136.4103,4087.6923,4145.1282,4183.0769,4140.5128,4644.1026,4138.9744,4136.4103,4157.9487,4158.4615
4073.8462,4056.9231,4135.3846,4096.9231,4136.4103,4181.5385,4141.5385,4701.5385,4137.9487,4129.7436,4159.4872,4148.2051
4050.7692,4041.5385,4124.6154,4095.3846,4139.4872,4188.7179,4141.5385,4750.7692,4114.359,4111.7949,4129.7436,4109.2308
4049.7436,4041.5385,4124.1026,4091.7949,4133.8462,4191.2821,4150.2564,4797.4359,4103.0769,4114.8718,4107.6923,4114.8718
4065.1282,4050.7692,4131.2821,4093.8462,4139.4872,4180,4154.359,4830.7692,4111.2821,4126.1538,4117.9487,4131.2821
4073.3333,4055.3846,4127.6923,4094.359,4149.7436,4173.3333,4147.6923,4852.3077,4112.3077,4122.5641,4121.5385,4129.2308
4072.3077,4052.3077,4123.0769,4097.4359,4145.1282,4177.4359,4146.6667,4867.6923,4105.641,4118.9744,4111.2821,4143.0769
4080,4057.9487,4128.7179,4100.5128,4143.0769,4175.8974,4150.7692,4882.0513,4116.9231,4122.0513,4118.4615,4153.8462
4070.7692,4049.2308,4130.7692,4097.4359,4140,4164.1026,4152.3077,4889.2308,4127.6923,4114.359,4122.5641,4130.2564
4051.7949,4033.8462,4128.7179,4101.0256,4133.3333,4158.9744,4151.7949,4885.641,4123.0769,4107.6923,4114.8718,4119.4872
4062.0513,4045.1282,4133.3333,4107.6923,4135.8974,4163.0769,4149.7436,4885.1282,4120.5128,4112.3077,4118.4615,4136.9231
4078.4615,4065.641,4131.7949,4108.2051,4146.6667,4163.5897,4143.0769,4887.6923,4127.6923,4118.4615,4128.7179,4144.1026
4070.7692,4062.0513,4125.1282,4100.5128,4155.8974,4165.641,4136.9231,4883.0769,4131.7949,4120,4133.3333,4142.0513
4058.9744,4052.3077,4122.0513,4096.4103,4156.4103,4168.2051,4136.4103,4874.359,4129.7436,4113.3333,4129.7436,4135.8974
4072.3077,4068.7179,4130.2564,4110.7692,4150.2564,4164.6154,4135.8974,4880,4140.5128,4111.7949,4133.8462,4140.5128
4077.9487,4078.4615,4142.5641,4121.5385,4139.4872,4165.641,4143.5897,4892.8205,4147.1795,4120,4147.6923,4154.8718
4074.359,4071.2821,4146.6667,4117.9487,4146.6667,4167.6923,4156.4103,4889.2308,4143.5897,4125.1282,4156.9231,4153.3333
4087.6923,4075.8974,4145.641,4120.5128,4159.4872,4163.5897,4151.2821,4871.2821,4152.3077,4125.641,4158.9744,4152.8205
4090.2564,4076.4103,4137.9487,4119.4872,4154.359,4161.0256,4138.9744,4855.3846,4150.7692,4124.6154,4148.2051,4154.8718
4077.9487,4070.2564,4134.359,4112.8205,4145.641,4171.7949,4145.1282,4850.7692,4138.4615,4125.641,4138.4615,4143.0769
4074.359,4072.3077,4137.9487,4126.6667,4140,4170.7692,4150.7692,4844.1026,4140,4127.6923,4142.5641,4131.2821
4079.4872,4065.1282,4142.0513,4138.9744,4138.9744,4158.4615,4141.0256,4827.1795,4142.0513,4128.2051,4141.0256,4136.9231
4080.5128,4047.1795,4140.5128,4127.6923,4158.4615,4163.0769,4136.9231,4819.4872,4140,4130.7692,4138.9744,4142.5641
4069.2308,4045.1282,4133.3333,4121.0256,4170.2564,4171.7949,4142.0513,4817.4359,4138.4615,4129.2308,4136.9231,4122.5641
4059.4872,4057.9487,4127.1795,4129.2308,4163.0769,4171.7949,4139.4872,4804.1026,4141.5385,4129.2308,4132.3077,4120.5128
4069.7436,4061.0256,4128.7179,4138.9744,4165.1282,4170.2564,4134.8718,4790.2564,4148.7179,4130.7692,4137.9487,4136.4103
4076.9231,4050.7692,4133.8462,4140.5128,4154.8718,4164.6154,4133.3333,4778.4615,4145.641,4124.6154,4138.4615,4118.4615
4075.8974,4057.9487,4140.5128,4141.5385,4149.2308,4167.6923,4136.9231,4767.1795,4143.5897,4123.0769,4127.6923,4107.6923
4087.1795,4085.641,4151.2821,4153.3333,4185.1282,4191.2821,4154.8718,4769.2308,4164.1026,4135.8974,4139.4872,4143.5897
4113.8462,4100.5128,4169.2308,4175.3846,4211.7949,4213.8462,4179.4872,4787.6923,4190.2564,4151.7949,4174.8718,4174.8718
4135.3846,4093.3333,4178.4615,4189.7436,4199.4872,4213.3333,4184.6154,4792.3077,4195.8974,4154.359,4182.5641,4172.3077
4124.1026,4078.4615,4166.1538,4177.9487,4191.7949,4213.8462,4176.4103,4770.2564,4183.0769,4146.1538,4153.3333,4158.4615
4109.2308,4078.9744,4158.4615,4170.7692,4198.9744,4224.1026,4177.4359,4758.4615,4180,4145.1282,4146.6667,4159.4872
4116.4103,4079.4872,4166.6667,4181.0256,4190.2564,4214.359,4178.4615,4761.0256,4193.8462,4147.6923,4166.1538,4166.1538
4115.3846,4074.8718,4168.7179,4183.5897,4191.2821,4201.5385,4170.7692,4749.7436,4199.4872,4146.6667,4169.7436,4164.6154
4105.1282,4081.0256,4167.1795,4179.4872,4210.2564,4209.2308,4168.7179,4729.7436,4189.7436,4144.6154,4156.9231,4156.4103
4116.4103,4088.2051,4171.2821,4186.6667,4209.7436,4206.1538,4166.6667,4716.4103,4186.6667,4150.2564,4153.8462,4152.8205
4136.9231,4092.8205,4176.9231,4192.8205,4191.7949,4193.3333,4158.9744,4711.7949,4206.1538,4161.0256,4170.7692,4159.4872
4127.6923,4094.8718,4177.4359,4184.6154,4195.3846,4194.8718,4156.9231,4703.0769,4210.7692,4161.5385,4176.4103,4162.0513
4113.8462,4087.6923,4168.7179,4181.5385,4210.2564,4206.1538,4163.0769,4685.1282,4195.8974,4155.8974,4164.1026,4158.4615
4113.3333,4081.5385,4163.5897,4194.359,4194.8718,4202.0513,4166.1538,4674.8718,4197.4359,4156.9231,4163.5897,4152.3077
4106.6667,4084.1026,4175.3846,4204.1026,4180,4194.8718,4167.6923,4671.7949,4200.5128,4161.5385,4165.641,4151.7949
4113.3333,4090.7692,4186.6667,4201.5385,4190.2564,4199.4872,4171.2821,4664.6154,4196.9231,4165.1282,4163.5897,4161.5385
4122.5641,4083.0769,4179.4872,4190.2564,4189.7436,4198.4615,4171.7949,4656.4103,4194.8718,4160.5128,4159.4872,4147.1795
4113.3333,4076.9231,4177.9487,4192.3077,4187.6923,4194.359,4167.1795,4650.7692,4189.2308,4156.4103,4153.8462,4123.5897
4114.359,4091.7949,4192.8205,4204.6154,4204.6154,4196.4103,4168.7179,4644.1026,4189.2308,4163.0769,4154.359,4140.5128
4118.4615,4102.0513,4193.8462,4198.4615,4203.5897,4194.359,4170.7692,4626.6667,4194.359,4163.5897,4153.8462,4158.9744
4109.7436,4097.4359,4180,4190.7692,4187.1795,4192.3077,4161.0256,4604.6154,4188.7179,4154.359,4145.641,4149.7436
4110.7692,4092.3077,4172.8205,4200.5128,4190.7692,4200.5128,4152.8205,4592.8205,4178.9744,4152.3077,4137.4359,4163.5897
4114.8718,4094.8718,4175.8974,4208.2051,4202.5641,4199.4872,4158.9744,4595.3846,4184.6154,4158.4615,4148.7179,4188.2051
4111.7949,4108.2051,4182.0513,4209.7436,4201.5385,4190.7692,4169.7436,4597.4359,4199.4872,4166.1538,4164.6154,4186.6667
4126.6667,4125.1282,4189.2308,4218.4615,4191.7949,4187.6923,4170.7692,4586.6667,4205.1282,4173.8462,4164.6154,4197.4359
4142.0513,4136.4103,4195.3846,4235.3846,4194.8718,4187.6923,4169.7436,4581.5385,4214.359,4177.4359,4175.8974,4226.6667
4134.8718,4142.0513,4195.8974,4244.1026,4220.5128,4196.4103,4175.8974,4581.0256,4223.5897,4175.8974,4191.2821,4236.4103
4147.6923,4161.5385,4206.6667,4250.2564,4232.8205,4213.8462,4186.6667,4578.4615,4227.1795,4184.6154,4186.1538,4257.4359
4178.4615,4187.6923,4223.5897,4263.5897,4225.641,4220,4198.9744,4586.6667,4240,4198.9744,4191.7949,4290.7692
4164.1026,4181.5385,4218.4615,4271.2821,4226.1538,4218.4615,4202.5641,4583.0769,4241.5385,4193.3333,4196.9231,4267.1795
4140,4160,4206.1538,4261.0256,4231.7949,4216.9231,4194.359,4556.9231,4222.0513,4185.641,4176.4103,4242.5641
4143.5897,4158.9744,4202.5641,4245.641,4226.6667,4207.6923,4188.7179,4539.4872,4207.1795,4184.1026,4164.6154,4260
4136.4103,4161.0256,4198.9744,4240,4221.5385,4205.641,4196.9231,4544.6154,4205.641,4180.5128,4168.2051,4253.3333
4122.0513,4158.9744,4200,4239.4872,4240.5128,4218.4615,4202.5641,4556.4103,4211.7949,4181.5385,4165.1282,4235.3846
4129.2308,4165.641,4204.1026,4238.9744,4243.5897,4223.0769,4196.9231,4554.8718,4211.2821,4184.1026,4160,4249.7436
4146.6667,4182.0513,4207.1795,4248.2051,4227.1795,4217.4359,4197.9487,4559.4872,4215.3846,4188.7179,4171.7949,4270.7692
4152.3077,4187.1795,4209.2308,4257.9487,4233.3333,4217.9487,4200.5128,4569.7436,4228.2051,4193.8462,4180,4279.4872
4140,4176.4103,4203.0769,4251.7949,4235.3846,4210.2564,4191.2821,4548.7179,4223.0769,4189.7436,4168.2051,4274.8718
4131.2821,4172.3077,4196.4103,4250.2564,4223.0769,4203.5897,4184.1026,4522.5641,4205.641,4186.1538,4164.1026,4261.0256
4134.359,4175.3846,4198.9744,4251.2821,4228.7179,4216.9231,4190.2564,4525.1282,4209.2308,4189.2308,4170.2564,4257.9487
4133.3333,4175.3846,4203.0769,4250.2564,4239.4872,4224.6154,4192.8205,4530.7692,4235.3846,4192.3077,4175.3846,4266.1538
4128.7179,4180,4203.0769,4255.3846,4224.6154,4209.7436,4184.6154,4521.0256,4242.0513,4194.8718,4181.0256,4262.5641
4133.3333,4181.5385,4197.9487,4250.2564,4217.9487,4196.4103,4181.5385,4507.6923,4220.5128,4194.359,4174.359,4247.6923
4141.5385,4177.9487,4192.3077,4236.4103,4233.3333,4202.5641,4185.641,4501.5385,4211.2821,4188.7179,4161.0256,4244.1026
4126.1538,4176.9231,4191.7949,4237.9487,4221.0256,4211.2821,4187.1795,4500.5128,4211.2821,4182.5641,4155.3846,4240
4104.6154,4171.7949,4191.7949,4248.7179,4199.4872,4210.7692,4186.1538,4493.3333,4200.5128,4182.0513,4150.2564,4227.1795
4117.9487,4172.3077,4190.7692,4249.7436,4214.359,4201.0256,4184.6154,4488.2051,4203.5897,4188.7179,4153.3333,4228.7179
4131.2821,4183.5897,4192.3077,4246.1538,4240,4200.5128,4185.1282,4488.2051,4213.8462,4193.3333,4164.1026,4232.3077
4121.0256,4194.359,4195.8974,4247.6923,4243.5897,4217.9487,4184.6154,4482.5641,4209.7436,4193.8462,4163.0769,4224.1026
4122.0513,4197.9487,4205.1282,4257.9487,4230.7692,4215.3846,4181.5385,4478.4615,4216.9231,4202.0513,4162.0513,4225.641
4125.1282,4195.3846,4215.8974,4271.7949,4223.5897,4191.2821,4183.0769,4482.5641,4234.8718,4209.7436,4182.0513,4239.4872
4119.4872,4190.7692,4211.7949,4271.7949,4228.7179,4188.2051,4182.5641,4473.8462,4233.8462,4201.5385,4188.2051,4234.359
4129.7436,4197.4359,4198.4615,4259.4872,4229.7436,4196.9231,4177.9487,4460,4232.8205,4192.8205,4161.5385,4214.8718
4140,4214.8718,4194.8718,4252.3077,4228.2051,4194.8718,4182.5641,4462.5641,4244.6154,4197.4359,4148.7179,4213.8462
4120.5128,4213.8462,4189.7436,4253.3333,4232.3077,4195.3846,4181.0256,4459.4872,4225.1282,4192.8205,4155.3846,4208.7179
4105.641,4198.9744,4179.4872,4252.8205,4230.7692,4193.8462,4171.7949,4445.641,4194.8718,4183.0769,4154.359,4183.0769
4111.7949,4195.3846,4179.4872,4251.2821,4229.2308,4192.3077,4176.4103,4444.1026,4199.4872,4183.0769,4148.2051,4163.5897
4095.8974,4187.1795,4180.5128,4251.2821,4227.1795,4195.3846,4183.0769,4442.0513,4202.0513,4178.9744,4143.0769,4155.3846
4077.4359,4176.9231,4178.4615,4251.7949,4214.8718,4187.1795,4176.9231,4428.7179,4187.1795,4181.0256,4142.5641,4155.3846
4080,4164.6154,4181.5385,4250.7692,4204.6154,4173.3333,4171.2821,4413.3333,4182.5641,4189.7436,4128.2051,4141.5385
4080.5128,4156.9231,4177.4359,4242.0513,4211.7949,4181.0256,4171.7949,4405.641,4186.6667,4185.641,4104.6154,4112.3077
4085.641,4174.359,4175.3846,4240,4224.6154,4191.7949,4177.4359,4412.3077,4196.4103,4184.6154,4105.1282,4122.5641
4085.1282,4183.5897,4181.0256,4234.8718,4223.0769,4185.641,4182.0513,4416.4103,4198.9744,4192.3077,4113.8462,4144.6154
4071.7949,4165.1282,4177.9487,4223.0769,4215.8974,4183.5897,4175.3846,4405.1282,4180.5128,4188.7179,4109.7436,4118.9744
4067.6923,4155.3846,4170.2564,4221.5385,4213.3333,4180.5128,4166.1538,4388.2051,4165.641,4178.9744,4107.1795,4092.8205
4074.359,4164.6154,4177.9487,4232.8205,4213.8462,4165.641,4167.6923,4381.5385,4168.7179,4178.9744,4115.8974,4101.5385
4075.3846,4171.2821,4190.2564,4237.9487,4223.5897,4166.1538,4168.2051,4385.641,4174.8718,4179.4872,4124.1026,4110.2564
4066.6667,4166.1538,4183.5897,4223.0769,4227.1795,4182.0513,4168.2051,4380,4171.7949,4172.8205,4116.4103,4093.3333
4066.6667,4160.5128,4174.8718,4215.8974,4223.0769,4182.5641,4172.3077,4374.359,4166.6667,4173.8462,4109.7436,4074.8718
4072.3077,4169.2308,4181.5385,4228.2051,4228.7179,4176.9231,4178.4615,4377.9487,4174.8718,4180.5128,4115.3846,4082.5641
4066.1538,4176.9231,4191.2821,4235.3846,4225.641,4177.4359,4183.0769,4375.8974,4185.641,4183.5897,4100,4082.5641
4062.5641,4165.1282,4192.3077,4236.9231,4208.7179,4176.4103,4177.9487,4368.2051,4186.1538,4181.5385,4075.8974,4058.4615
4068.2051,4152.8205,4183.5897,4231.2821,4208.7179,4173.3333,4169.2308,4356.4103,4171.7949,4166.6667,4084.1026,4048.2051
4066.6667,4158.4615,4172.8205,4216.9231,4225.641,4178.4615,4170.7692,4343.0769,4160,4157.4359,4097.4359,4059.4872
4057.9487,4164.6154,4170.7692,4209.7436,4226.1538,4184.6154,4177.4359,4344.6154,4169.2308,4163.0769,4086.1538,4063.5897
4057.4359,4162.5641,4173.3333,4216.4103,4216.9231,4178.9744,4182.5641,4348.2051,4174.8718,4165.1282,4075.8974,4054.359
4066.6667,4175.8974,4183.0769,4226.1538,4225.641,4173.8462,4183.5897,4343.5897,4176.4103,4170.7692,4085.641,4053.8462
4066.1538,4173.3333,4184.6154,4228.2051,4224.1026,4170.7692,4174.359,4331.7949,4175.8974,4176.4103,4085.641,4049.7436
4050.7692,4149.2308,4168.2051,4217.9487,4208.7179,4164.1026,4163.5897,4314.359,4167.6923,4173.3333,4061.5385,4027.1795
4047.1795,4155.3846,4163.5897,4212.3077,4205.641,4165.641,4167.1795,4312.8205,4165.1282,4174.8718,4042.5641,4008.2051
4051.7949,4164.6154,4168.7179,4217.4359,4204.1026,4165.1282,4174.359,4319.4872,4166.1538,4176.4103,4039.4872,4008.7179
4044.1026,4144.6154,4156.9231,4217.4359,4200,4160.5128,4170.2564,4304.6154,4160,4167.6923,4037.9487,4012.3077
4033.8462,4138.4615,4146.6667,4212.3077,4204.1026,4161.0256,4166.1538,4285.641,4149.7436,4162.5641,4034.8718,4008.2051
4044.6154,4155.8974,4157.4359,4214.359,4211.2821,4156.9231,4170.7692,4293.3333,4159.4872,4171.2821,4030.2564,4009.7436
4056.9231,4155.3846,4156.9231,4210.7692,4209.2308,4151.2821,4169.7436,4303.0769,4175.8974,4173.3333,4021.5385,4012.3077
4042.0513,4140,4142.0513,4197.4359,4202.0513,4156.4103,4164.1026,4283.0769,4167.6923,4164.1026,4005.641,3997.4359
4047.1795,4150.7692,4150.2564,4208.7179,4206.1538,4167.1795,4171.2821,4271.2821,4159.4872,4172.3077,4003.5897,4000
4066.6667,4165.641,4161.5385,4229.2308,4213.8462,4164.6154,4176.9231,4281.5385,4161.5385,4183.0769,4007.6923,4016.9231
4048.7179,4152.8205,4146.6667,4214.359,4204.6154,4155.3846,4166.1538,4273.8462,4156.9231,4170.7692,3991.7949,4004.6154
4056.4103,4168.7179,4157.4359,4216.4103,4217.9487,4172.3077,4180,4281.5385,4181.5385,4173.8462,4010.2564,4018.9744
4113.8462,4222.5641,4205.641,4269.7436,4272.3077,4209.7436,4223.0769,4329.7436,4230.2564,4206.1538,4069.2308,4071.2821
4140,4247.6923,4230.7692,4299.4872,4295.3846,4224.1026,4237.4359,4354.359,4252.3077,4221.5385,4087.1795,4082.5641
4123.5897,4241.5385,4223.0769,4284.6154,4272.8205,4212.3077,4223.5897,4334.359,4246.1538,4212.8205,4068.2051,4068.7179
4102.0513,4229.2308,4208.2051,4264.6154,4256.9231,4206.1538,4216.9231,4309.7436,4222.0513,4198.4615,4053.3333,4068.2051
4085.641,4205.1282,4185.1282,4251.7949,4251.2821,4191.7949,4205.1282,4292.3077,4197.4359,4180.5128,4029.7436,4039.4872
4074.8718,4179.4872,4162.5641,4235.8974,4233.8462,4164.1026,4180,4272.3077,4187.6923,4169.7436,3996.4103,3994.8718
4072.8205,4182.0513,4159.4872,4229.7436,4223.5897,4163.0769,4170.2564,4265.641,4182.5641,4173.3333,3998.4615,4004.6154
4060.5128,4185.641,4153.8462,4225.641,4227.6923,4172.8205,4171.7949,4260.5128,4171.7949,4165.641,4007.6923,4021.0256
4045.641,4180,4145.1282,4223.5897,4224.1026,4162.0513,4171.2821,4241.5385,4161.5385,4160,3986.1538,3994.359
4055.8974,4194.359,4155.8974,4236.9231,4225.1282,4154.8718,4177.4359,4241.0256,4171.2821,4175.8974,3984.6154,3995.3846
4064.6154,4196.4103,4157.4359,4235.3846,4234.8718,4164.1026,4182.5641,4249.7436,4182.0513,4181.0256,3991.2821,4009.7436
4053.8462,4176.4103,4141.5385,4217.4359,4233.8462,4167.1795,4184.1026,4243.5897,4179.4872,4173.8462,3970.7692,3988.7179
4055.8974,4180.5128,4143.5897,4224.6154,4226.1538,4161.0256,4184.6154,4240.5128,4182.0513,4176.4103,3969.2308,3990.2564
4061.5385,4189.7436,4151.2821,4235.8974,4234.359,4156.9231,4177.4359,4236.4103,4171.2821,4178.4615,3984.6154,4008.7179
4055.3846,4175.8974,4142.0513,4225.641,4246.6667,4165.1282,4172.3077,4225.641,4148.2051,4174.359,3976.4103,3996.9231
4056.9231,4170.7692,4139.4872,4223.0769,4231.7949,4167.6923,4178.4615,4228.2051,4154.8718,4177.4359,3967.1795,3987.6923
4070.2564,4187.1795,4150.7692,4235.3846,4224.6154,4160,4183.5897,4242.5641,4177.9487,4189.7436,3982.0513,4008.7179
4072.3077,4195.3846,4153.8462,4234.8718,4245.641,4161.5385,4182.5641,4244.6154,4174.359,4196.4103,3989.7436,4022.5641
4059.4872,4184.1026,4144.6154,4223.0769,4249.7436,4169.2308,4184.6154,4235.8974,4160.5128,4194.359,3971.2821,4008.2051
4052.3077,4174.8718,4137.4359,4219.4872,4235.3846,4173.3333,4184.6154,4229.2308,4163.5897,4193.8462,3956.9231,4000
4052.3077,4172.3077,4134.8718,4217.4359,4233.3333,4170.7692,4180,4220,4167.6923,4193.8462,3958.4615,4001.5385
4061.5385,4174.359,4140,4215.8974,4237.4359,4169.7436,4181.0256,4214.359,4169.7436,4197.4359,3965.1282,4002.0513
4072.3077,4177.4359,4149.7436,4220,4233.3333,4171.7949,4187.1795,4217.9487,4175.3846,4202.5641,3967.1795,4006.6667
4056.9231,4169.7436,4148.2051,4219.4872,4228.7179,4173.3333,4184.1026,4206.1538,4170.2564,4195.8974,3954.8718,4004.1026
4054.8718,4171.2821,4141.0256,4219.4872,4237.9487,4172.8205,4170.7692,4188.7179,4167.6923,4190.7692,3950.7692,4003.0769
4086.6667,4190.2564,4143.5897,4223.5897,4244.6154,4172.8205,4166.6667,4189.7436,4173.3333,4196.4103,3960.5128,4011.7949
4097.4359,4196.4103,4144.6154,4225.1282,4243.5897,4182.0513,4172.8205,4186.6667,4170.7692,4195.8974,3958.4615,4013.3333
4080.5128,4190.7692,4142.0513,4226.1538,4247.6923,4185.1282,4169.7436,4171.7949,4169.7436,4191.7949,3944.1026,4007.1795
4080,4192.3077,4146.1538,4232.3077,4239.4872,4173.3333,4165.641,4167.6923,4179.4872,4197.4359,3942.5641,4008.7179
4092.3077,4203.0769,4152.8205,4235.3846,4227.1795,4164.6154,4171.2821,4180.5128,4195.8974,4205.1282,3968.2051,4023.0769
4088.7179,4208.7179,4147.6923,4232.8205,4227.1795,4162.5641,4171.2821,4179.4872,4193.8462,4199.4872,3975.8974,4022.5641
4073.3333,4195.3846,4136.9231,4226.1538,4228.2051,4168.2051,4166.6667,4158.4615,4172.3077,4191.2821,3949.7436,3999.4872
4067.1795,4182.5641,4135.8974,4219.4872,4233.8462,4181.5385,4167.1795,4150.7692,4169.2308,4194.359,3945.1282,3996.9231
4075.3846,4189.2308,4139.4872,4220,4233.8462,4180.5128,4169.2308,4157.4359,4177.9487,4199.4872,3965.1282,4017.9487
4087.6923,4204.1026,4142.0513,4223.0769,4227.6923,4165.641,4169.7436,4163.0769,4177.4359,4203.0769,3970.2564,4028.7179
4072.8205,4196.9231,4135.8974,4213.3333,4237.9487,4173.8462,4167.6923,4152.3077,4164.1026,4196.9231,3957.4359,4020.5128
4061.0256,4183.0769,4130.7692,4204.6154,4236.4103,4182.5641,4168.2051,4138.9744,4154.359,4194.359,3957.4359,4017.4359
4086.1538,4201.0256,4149.2308,4227.6923,4211.2821,4161.5385,4173.8462,4152.8205,4170.2564,4208.2051,3974.359,4037.9487
4095.8974,4213.3333,4162.0513,4241.0256,4212.8205,4144.1026,4172.8205,4163.5897,4183.0769,4214.359,3970.2564,4042.5641
4084.1026,4205.1282,4149.7436,4226.1538,4239.4872,4154.8718,4169.7436,4153.3333,4181.0256,4209.2308,3964.1026,4032.8205
4092.3077,4205.641,4141.5385,4223.5897,4238.4615,4166.1538,4177.9487,4151.7949,4177.4359,4206.1538,3989.2308,4041.5385
4101.0256,4211.7949,4144.1026,4228.7179,4221.5385,4158.4615,4181.5385,4156.4103,4170.7692,4202.0513,4003.0769,4055.8974
4086.6667,4213.8462,4142.5641,4222.5641,4228.7179,4162.5641,4173.3333,4149.2308,4164.1026,4199.4872,3991.2821,4053.3333
4071.2821,4210.7692,4141.5385,4214.359,4234.8718,4176.4103,4170.2564,4136.4103,4164.1026,4202.0513,3988.2051,4043.5897
4087.1795,4214.359,4147.6923,4217.4359,4225.1282,4166.1538,4172.8205,4139.4872,4176.4103,4210.7692,4002.5641,4054.8718
4111.7949,4224.6154,4147.6923,4224.1026,4220.5128,4145.641,4169.7436,4148.2051,4184.1026,4213.8462,4011.7949,4069.7436
4096.4103,4220,4139.4872,4222.0513,4221.0256,4147.1795,4166.1538,4137.4359,4170.7692,4205.641,4005.1282,4063.0769
4080.5128,4219.4872,4143.0769,4222.5641,4226.1538,4156.9231,4173.3333,4127.1795,4165.1282,4207.1795,4003.0769,4064.1026
4091.2821,4224.1026,4149.7436,4223.5897,4230.2564,4158.4615,4175.3846,4128.2051,4161.5385,4210.7692,3998.9744,4065.641
4083.0769,4215.8974,4141.5385,4215.8974,4229.7436,4161.5385,4171.7949,4122.0513,4143.5897,4200.5128,3985.641,4051.7949
4074.8718,4213.3333,4137.9487,4215.3846,4222.0513,4160.5128,4177.9487,4118.9744,4149.7436,4197.4359,3992.8205,4055.8974
4088.2051,4218.9744,4144.6154,4222.0513,4221.5385,4154.8718,4183.5897,4127.6923,4175.3846,4209.7436,4011.2821,4071.7949
4091.7949,4216.4103,4144.6154,4222.5641,4236.9231,4158.4615,4173.8462,4128.7179,4168.7179,4210.7692,4014.8718,4065.641
4079.4872,4213.3333,4137.9487,4218.9744,4234.8718,4160.5128,4165.1282,4116.9231,4158.4615,4198.9744,4009.7436,4054.8718
4077.9487,4219.4872,4140,4220,4214.8718,4155.3846,4170.7692,4117.4359,4181.5385,4203.5897,4016.9231,4062.0513
4086.6667,4222.0513,4140.5128,4213.3333,4216.4103,4160.5128,4172.8205,4123.5897,4183.0769,4206.1538,4022.0513,4064.6154
4083.0769,4217.4359,4129.2308,4203.5897,4228.2051,4165.641,4168.2051,4113.8462,4153.8462,4197.9487,4015.3846,4057.4359
4084.1026,4223.5897,4128.7179,4215.3846,4230.2564,4160.5128,4169.2308,4112.3077,4155.3846,4202.5641,4028.2051,4070.2564
4091.7949,4229.2308,4137.9487,4222.5641,4231.2821,4152.8205,4171.7949,4120,4173.8462,4210.2564,4046.6667,4084.6154
4089.2308,4222.0513,4137.4359,4209.7436,4230.7692,4153.3333,4173.3333,4115.8974,4164.6154,4206.1538,4037.4359,4075.3846
4085.1282,4214.359,4132.3077,4205.1282,4231.7949,4163.0769,4173.3333,4109.7436,4153.3333,4202.5641,4028.7179,4069.7436
4077.9487,4207.1795,4127.6923,4205.1282,4234.8718,4169.2308,4172.3077,4103.5897,4151.2821,4201.5385,4027.6923,4065.641
4065.641,4206.6667,4125.1282,4196.9231,4225.641,4165.641,4173.3333,4098.4615,4148.2051,4198.9744,4024.1026,4057.4359
4065.641,4212.3077,4129.7436,4195.3846,4210.2564,4153.3333,4169.7436,4100,4149.7436,4199.4872,4028.2051,4063.5897
4081.5385,4220.5128,4135.8974,4206.1538,4207.6923,4142.0513,4160,4100.5128,4150.2564,4202.5641,4037.9487,4073.3333
4085.1282,4220.5128,4129.7436,4202.0513,4220,4140.5128,4152.8205,4094.8718,4147.6923,4199.4872,4040,4067.6923
4071.2821,4205.641,4120.5128,4180,4220.5128,4143.5897,4155.8974,4090.2564,4143.5897,4193.8462,4032.3077,4058.4615
4076.4103,4206.1538,4126.1538,4181.0256,4214.8718,4141.5385,4166.6667,4099.4872,4142.5641,4203.0769,4036.9231,4070.7692
4087.6923,4216.4103,4128.7179,4195.8974,4216.4103,4138.9744,4167.1795,4106.6667,4143.0769,4209.7436,4045.1282,4080.5128
4073.8462,4205.1282,4116.4103,4188.7179,4216.9231,4145.641,4162.0513,4092.3077,4139.4872,4194.359,4035.8974,4064.1026
4071.7949,4200,4115.3846,4189.7436,4211.7949,4148.2051,4165.641,4084.1026,4142.5641,4186.6667,4034.359,4064.6154
4081.0256,4208.7179,4127.1795,4203.0769,4206.6667,4136.4103,4167.6923,4093.3333,4144.6154,4196.4103,4043.5897,4078.9744
4067.1795,4201.5385,4125.1282,4195.3846,4209.7436,4133.8462,4158.4615,4087.1795,4140.5128,4197.9487,4044.1026,4068.7179
4057.9487,4192.3077,4113.8462,4182.0513,4205.641,4139.4872,4151.7949,4069.2308,4138.9744,4190.7692,4043.0769,4056.4103
4068.7179,4196.4103,4114.359,4181.0256,4191.2821,4129.7436,4155.8974,4064.6154,4138.4615,4190.7692,4046.6667,4061.0256
4070.2564,4199.4872,4121.5385,4175.8974,4194.359,4124.6154,4156.4103,4069.2308,4133.3333,4195.8974,4043.0769,4064.6154
4058.9744,4199.4872,4122.5641,4172.3077,4206.6667,4131.7949,4151.7949,4064.6154,4122.0513,4198.9744,4038.4615,4058.9744
4065.1282,4203.0769,4123.5897,4180.5128,4207.1795,4133.8462,4151.2821,4062.5641,4126.1538,4205.1282,4049.7436,4060.5128
4070.7692,4198.4615,4122.5641,4178.4615,4202.5641,4129.7436,4154.359,4060.5128,4141.5385,4202.5641,4056.4103,4061.5385
4045.641,4181.0256,4111.2821,4156.9231,4193.8462,4126.6667,4150.7692,4044.6154,4123.5897,4184.1026,4042.0513,4047.6923
4036.4103,4178.9744,4109.2308,4154.359,4187.6923,4124.1026,4145.1282,4041.5385,4105.1282,4181.5385,4042.5641,4051.2821
4054.8718,4191.2821,4118.9744,4172.3077,4187.1795,4118.9744,4149.2308,4050.7692,4124.6154,4195.8974,4061.5385,4069.7436
4060.5128,4192.3077,4123.0769,4173.3333,4191.7949,4118.9744,4154.359,4044.6154,4136.4103,4198.4615,4066.1538,4066.6667
4053.3333,4185.641,4117.4359,4161.5385,4198.9744,4123.5897,4152.3077,4040,4124.6154,4187.1795,4062.0513,4054.8718
4044.6154,4179.4872,4109.7436,4154.8718,4194.359,4124.1026,4151.2821,4046.6667,4120,4183.0769,4058.9744,4052.3077
4038.4615,4180,4108.7179,4152.3077,4192.8205,4125.1282,4155.3846,4049.7436,4128.7179,4183.0769,4059.4872,4054.359
4037.4359,4177.9487,4107.6923,4146.6667,4196.9231,4125.641,4150.2564,4035.3846,4121.5385,4169.2308,4054.8718,4047.6923
4038.4615,4171.2821,4106.1538,4146.1538,4181.5385,4119.4872,4144.6154,4022.5641,4113.3333,4163.5897,4047.6923,4040.5128
4041.5385,4176.4103,4110.7692,4150.7692,4174.8718,4111.2821,4152.3077,4034.8718,4132.3077,4176.9231,4058.4615,4052.3077
4046.6667,4183.5897,4117.9487,4155.3846,4191.2821,4106.6667,4155.3846,4046.6667,4150.2564,4184.1026,4078.4615,4070.2564
4047.1795,4181.0256,4116.4103,4162.0513,4200.5128,4105.641,4143.0769,4038.4615,4146.1538,4180,4083.5897,4071.2821
4039.4872,4174.8718,4105.641,4156.9231,4192.8205,4113.8462,4139.4872,4027.6923,4128.2051,4176.9231,4067.6923,4061.0256
4043.5897,4175.3846,4101.0256,4149.7436,4186.6667,4119.4872,4149.2308,4028.2051,4124.1026,4173.8462,4062.0513,4058.4615
4051.2821,4182.5641,4111.2821,4158.4615,4184.1026,4107.1795,4151.2821,4034.359,4135.3846,4174.359,4078.9744,4066.6667
4042.0513,4181.0256,4113.8462,4161.0256,4179.4872,4095.8974,4149.7436,4033.3333,4134.8718,4178.9744,4079.4872,4066.1538
4042.0513,4171.7949,4103.5897,4148.7179,4180.5128,4108.7179,4153.8462,4030.2564,4128.7179,4175.8974,4068.7179,4064.6154
4053.3333,4167.1795,4105.1282,4142.5641,4176.9231,4112.3077,4154.8718,4031.7949,4130.7692,4173.3333,4074.8718,4073.8462
4051.2821,4171.7949,4116.4103,4146.6667,4175.8974,4096.4103,4153.3333,4029.2308,4124.6154,4178.9744,4077.4359,4074.8718
4047.1795,4179.4872,4117.4359,4153.8462,4190.2564,4105.1282,4156.4103,4026.6667,4123.0769,4183.5897,4077.9487,4071.7949
4053.3333,4182.5641,4115.8974,4157.4359,4194.8718,4121.5385,4159.4872,4032.3077,4141.5385,4185.1282,4094.359,4081.0256
4060,4188.2051,4122.0513,4157.4359,4199.4872,4111.7949,4157.4359,4042.5641,4149.7436,4191.7949,4108.7179,4092.3077
4057.9487,4191.2821,4123.5897,4154.359,4198.9744,4108.2051,4154.359,4040,4137.9487,4190.7692,4101.0256,4086.6667
4047.1795,4179.4872,4118.9744,4145.641,4175.8974,4116.9231,4157.9487,4026.6667,4129.2308,4184.6154,4090.2564,4073.3333
4045.1282,4177.9487,4122.5641,4148.2051,4176.4103,4117.9487,4166.6667,4029.2308,4136.4103,4189.7436,4098.9744,4078.4615
4056.4103,4186.6667,4124.1026,4159.4872,4201.0256,4111.7949,4169.2308,4036.9231,4135.8974,4190.2564,4103.5897,4085.641
4065.641,4185.1282,4119.4872,4156.4103,4203.0769,4111.7949,4169.2308,4035.3846,4130.2564,4186.1538,4097.4359,4085.641
4057.9487,4176.9231,4123.0769,4152.3077,4193.3333,4117.9487,4166.1538,4036.9231,4136.9231,4188.2051,4099.4872,4087.6923
4047.1795,4173.3333,4127.6923,4157.9487,4191.7949,4117.9487,4158.9744,4038.9744,4142.5641,4187.6923,4105.1282,4089.2308
4066.6667,4182.5641,4128.7179,4161.0256,4191.7949,4110.7692,4158.4615,4040.5128,4149.7436,4188.7179,4116.4103,4100
4083.0769,4187.1795,4130.7692,4159.4872,4192.3077,4111.7949,4161.5385,4036.9231,4150.7692,4190.7692,4121.0256,4105.641
4069.7436,4182.5641,4133.3333,4165.641,4192.3077,4117.9487,4162.0513,4029.7436,4146.6667,4188.2051,4113.8462,4097.9487
4062.0513,4180.5128,4127.6923,4163.5897,4188.7179,4115.3846,4164.6154,4031.2821,4147.1795,4182.5641,4110.2564,4093.8462
4060.5128,4176.4103,4118.4615,4144.6154,4193.8462,4116.9231,4168.2051,4032.8205,4143.5897,4178.4615,4109.2308,4087.6923
4046.1538,4169.2308,4118.4615,4140.5128,4201.0256,4120.5128,4160,4022.0513,4139.4872,4177.4359,4103.5897,4081.5385
4035.8974,4165.1282,4118.9744,4147.1795,4183.5897,4108.2051,4151.7949,4006.1538,4136.9231,4175.3846,4092.8205,4076.4103
4048.2051,4169.2308,4112.8205,4144.6154,4169.2308,4103.5897,4153.3333,4003.5897,4134.359,4176.9231,4089.2308,4072.8205
4060.5128,4172.8205,4111.2821,4145.1282,4183.5897,4113.3333,4155.3846,4006.6667,4132.8205,4179.4872,4094.359,4073.8462
4046.6667,4164.6154,4113.8462,4143.5897,4191.2821,4110.7692,4155.3846,4004.6154,4124.1026,4176.9231,4092.3077,4068.7179
4038.4615,4161.0256,4114.359,4134.8718,4183.5897,4102.5641,4152.3077,4013.3333,4118.9744,4177.4359,4092.8205,4066.6667
4046.6667,4159.4872,4108.7179,4129.2308,4181.5385,4109.7436,4150.7692,4016.4103,4128.2051,4178.4615,4100,4072.3077
4048.7179,4152.8205,4104.6154,4129.7436,4187.6923,4115.8974,4153.3333,4004.6154,4137.9487,4178.9744,4107.6923,4074.359
4050.2564,4156.4103,4111.2821,4137.9487,4184.6154,4108.7179,4155.3846,4004.6154,4138.9744,4182.0513,4112.8205,4077.9487
4058.9744,4160,4118.4615,4144.6154,4173.3333,4104.6154,4154.8718,4009.7436,4135.8974,4180.5128,4109.2308,4083.5897
4064.6154,4160.5128,4118.9744,4145.641,4175.8974,4110.7692,4155.3846,4013.3333,4143.0769,4182.5641,4112.8205,4089.2308
4049.7436,4157.9487,4114.359,4142.0513,4184.6154,4111.7949,4155.8974,4013.3333,4147.6923,4182.5641,4116.9231,4087.6923
4033.3333,4146.6667,4104.6154,4139.4872,4184.1026,4105.1282,4151.7949,3996.9231,4132.3077,4171.2821,4100.5128,4075.8974
4047.6923,4146.1538,4100.5128,4139.4872,4176.4103,4105.641,4148.7179,3985.1282,4128.2051,4161.0256,4096.9231,4073.3333
4063.5897,4153.3333,4104.6154,4143.0769,4170.2564,4109.7436,4151.2821,3994.359,4133.3333,4162.5641,4112.8205,4082.0513
4060.5128,4152.8205,4105.1282,4149.2308,4174.8718,4110.2564,4155.3846,4003.0769,4132.8205,4171.7949,4120.5128,4088.2051
4056.4103,4148.2051,4100.5128,4149.2308,4178.9744,4110.2564,4152.8205,3997.9487,4138.9744,4175.3846,4118.9744,4088.2051
4061.0256,4153.3333,4102.5641,4148.2051,4169.2308,4105.1282,4147.1795,4000.5128,4150.7692,4176.4103,4126.1538,4093.3333
4065.641,4158.4615,4115.3846,4151.2821,4169.7436,4102.5641,4150.7692,4011.7949,4151.7949,4181.5385,4135.8974,4102.0513
4058.9744,4147.1795,4119.4872,4145.641,4183.0769,4115.3846,4152.3077,4007.6923,4144.1026,4181.5385,4130.2564,4096.4103
4056.9231,4142.0513,4118.4615,4144.6154,4185.1282,4125.1282,4148.7179,3997.4359,4144.6154,4177.4359,4125.1282,4091.7949
4068.7179,4151.2821,4116.9231,4147.6923,4177.4359,4110.2564,4143.0769,4000.5128,4143.0769,4175.3846,4128.7179,4097.4359
4061.0256,4141.0256,4103.0769,4137.9487,4177.4359,4099.4872,4138.4615,3998.9744,4126.6667,4166.1538,4120,4087.1795
4044.1026,4127.6923,4097.9487,4127.1795,4180.5128,4108.7179,4142.0513,3993.8462,4121.5385,4160,4114.8718,4082.0513
4052.8205,4131.7949,4111.7949,4129.2308,4174.359,4106.6667,4151.2821,4002.5641,4132.8205,4171.7949,4121.5385,4096.4103
4064.1026,4135.8974,4111.2821,4134.8718,4169.7436,4098.4615,4149.2308,4010.7692,4135.3846,4178.4615,4121.5385,4097.4359
4057.9487,4127.6923,4095.8974,4130.2564,4164.6154,4103.0769,4137.4359,4003.0769,4124.6154,4165.1282,4109.7436,4079.4872
4052.8205,4122.0513,4097.4359,4124.1026,4152.8205,4103.5897,4137.4359,3994.359,4121.5385,4162.0513,4107.6923,4076.9231
4065.1282,4129.7436,4110.2564,4131.7949,4156.9231,4104.1026,4143.5897,4002.5641,4132.3077,4175.3846,4122.0513,4096.4103
4074.359,4129.7436,4103.5897,4137.4359,4168.2051,4113.3333,4142.0513,4001.0256,4140.5128,4175.8974,4126.1538,4094.8718
4070.7692,4121.0256,4088.7179,4129.7436,4161.5385,4113.8462,4138.9744,3979.4872,4140,4168.2051,4120.5128,4075.3846
4072.3077,4128.2051,4094.359,4127.6923,4155.8974,4111.2821,4138.9744,3970.2564,4135.3846,4171.7949,4124.6154,4076.9231
4071.2821,4136.9231,4102.5641,4135.3846,4162.0513,4115.3846,4139.4872,3967.6923,4124.6154,4175.8974,4125.1282,4080
4066.6667,4132.8205,4097.4359,4134.359,4155.3846,4116.9231,4137.4359,3957.4359,4125.1282,4174.359,4121.5385,4072.3077
4068.2051,4128.7179,4096.4103,4126.6667,4142.5641,4110.2564,4133.8462,3955.8974,4135.3846,4170.2564,4123.5897,4072.8205
4078.4615,4135.3846,4103.0769,4128.2051,4151.2821,4110.2564,4135.3846,3969.7436,4130.7692,4168.7179,4125.1282,4078.9744
4085.641,4143.5897,4105.1282,4133.3333,4163.5897,4115.3846,4137.9487,3972.8205,4122.0513,4167.6923,4127.1795,4080.5128
4074.359,4137.4359,4101.5385,4130.7692,4154.8718,4115.3846,4132.8205,3964.1026,4125.641,4166.1538,4130.7692,4077.9487
4072.8205,4130.7692,4101.5385,4123.0769,4149.7436,4122.5641,4128.2051,3967.6923,4137.9487,4167.6923,4134.359,4082.5641
4075.3846,4132.8205,4102.0513,4115.8974,4161.0256,4128.7179,4125.1282,3964.1026,4132.8205,4164.6154,4127.1795,4080
4071.7949,4133.8462,4103.0769,4112.8205,4161.0256,4116.4103,4123.5897,3948.7179,4116.9231,4161.5385,4117.4359,4067.6923
4073.8462,4131.7949,4110.7692,4115.3846,4149.7436,4109.2308,4130.7692,3955.8974,4121.5385,4165.1282,4121.0256,4065.641
4077.4359,4127.6923,4113.3333,4116.4103,4149.7436,4121.5385,4132.3077,3964.1026,4125.641,4164.1026,4123.5897,4069.2308
4088.2051,4135.3846,4112.8205,4122.5641,4155.3846,4129.7436,4125.641,3957.4359,4123.0769,4168.2051,4127.6923,4078.4615
4090.7692,4141.0256,4113.3333,4124.6154,4151.7949,4116.4103,4121.5385,3951.7949,4131.7949,4168.7179,4136.4103,4081.5385
4077.9487,4128.7179,4112.3077,4113.8462,4151.2821,4117.4359,4124.6154,3944.6154,4139.4872,4160.5128,4134.359,4068.7179
4076.4103,4125.641,4114.359,4113.8462,4160,4138.9744,4125.1282,3935.3846,4130.7692,4160.5128,4131.7949,4067.6923
4077.4359,4130.7692,4117.4359,4118.9744,4154.8718,4132.8205,4123.5897,3938.4615,4118.9744,4165.1282,4128.2051,4072.8205
4071.7949,4131.2821,4114.359,4113.3333,4148.2051,4111.2821,4124.1026,3948.7179,4124.1026,4162.5641,4126.1538,4069.7436
4073.8462,4129.2308,4110.7692,4110.2564,4152.3077,4118.4615,4122.5641,3947.6923,4126.1538,4157.4359,4131.7949,4068.2051
4077.9487,4130.7692,4112.3077,4115.8974,4152.8205,4132.8205,4116.4103,3941.5385,4118.9744,4159.4872,4133.8462,4068.2051
4075.8974,4131.7949,4112.3077,4115.8974,4157.4359,4127.1795,4112.8205,3942.5641,4125.1282,4163.0769,4132.8205,4065.1282
4072.8205,4126.6667,4109.7436,4110.2564,4149.7436,4116.9231,4118.9744,3938.9744,4121.5385,4160.5128,4128.2051,4058.4615
4069.7436,4129.7436,4112.3077,4110.7692,4136.9231,4113.8462,4124.1026,3938.4615,4108.7179,4157.9487,4125.1282,4056.4103
4070.2564,4132.3077,4108.7179,4113.8462,4145.1282,4114.8718,4121.5385,3944.1026,4115.3846,4160.5128,4125.641,4057.9487
4072.3077,4128.2051,4102.5641,4110.7692,4158.4615,4116.9231,4123.0769,3940,4121.0256,4161.0256,4125.1282,4058.4615
4067.6923,4133.3333,4106.1538,4109.2308,4159.4872,4120,4129.7436,3936.9231,4113.3333,4157.4359,4125.1282,4064.6154
4058.9744,4136.9231,4106.6667,4108.7179,4154.8718,4124.1026,4129.2308,3940,4110.7692,4153.3333,4117.9487,4061.5385
4066.6667,4133.8462,4104.6154,4111.7949,4155.8974,4130.2564,4126.6667,3946.1538,4120.5128,4155.8974,4117.9487,4057.4359
4081.0256,4137.9487,4113.3333,4118.9744,4158.9744,4128.2051,4126.6667,3953.8462,4128.2051,4162.0513,4135.3846,4070.2564
4074.8718,4138.4615,4114.359,4115.3846,4157.9487,4112.8205,4123.0769,3948.7179,4124.6154,4163.5897,4138.4615,4074.8718
4065.1282,4134.8718,4106.6667,4109.2308,4160.5128,4108.7179,4117.4359,3941.0256,4124.1026,4162.0513,4129.2308,4067.6923
4065.641,4138.9744,4106.6667,4114.359,4166.6667,4117.4359,4116.9231,3941.5385,4126.1538,4162.0513,4132.3077,4065.641
4062.5641,4140.5128,4105.641,4113.8462,4164.1026,4117.4359,4119.4872,3942.5641,4125.1282,4162.5641,4138.4615,4064.6154
4063.5897,4138.4615,4103.5897,4107.1795,4157.4359,4111.2821,4119.4872,3939.4872,4127.6923,4162.5641,4140,4066.1538
4082.0513,4145.641,4113.8462,4117.9487,4163.5897,4115.3846,4121.5385,3938.4615,4135.8974,4166.1538,4143.0769,4074.8718
4094.359,4155.3846,4122.0513,4134.359,4182.5641,4118.4615,4123.5897,3941.5385,4138.9744,4166.6667,4146.6667,4080.5128
4077.9487,4143.5897,4106.6667,4124.1026,4195.3846,4116.9231,4116.4103,3930.2564,4120,4152.8205,4132.3077,4067.6923
4062.5641,4128.7179,4096.4103,4109.2308,4210.7692,4126.6667,4113.3333,3920.5128,4101.5385,4148.7179,4124.6154,4061.5385
4068.7179,4138.4615,4111.7949,4118.9744,4232.8205,4130.2564,4120.5128,3933.3333,4116.4103,4163.5897,4142.5641,4076.4103
4074.8718,4148.2051,4117.9487,4127.1795,4246.1538,4120,4127.1795,3949.2308,4135.8974,4170.2564,4149.7436,4081.5385
4083.5897,4147.6923,4114.359,4125.641,4260,4117.4359,4124.1026,3953.3333,4140.5128,4168.7179,4146.1538,4081.5385
4086.6667,4140.5128,4111.7949,4125.1282,4272.8205,4122.0513,4121.0256,3942.0513,4135.3846,4167.1795,4144.6154,4082.0513
4072.8205,4130.7692,4107.1795,4119.4872,4275.3846,4116.4103,4122.0513,3927.1795,4122.0513,4162.0513,4135.8974,4074.359
4068.7179,4132.3077,4108.2051,4117.4359,4275.3846,4113.3333,4122.5641,3931.7949,4118.9744,4160,4130.2564,4070.2564
4077.4359,4141.0256,4116.4103,4122.0513,4279.4872,4126.6667,4127.1795,3946.1538,4127.6923,4163.5897,4135.3846,4073.8462
4080,4148.2051,4124.1026,4125.1282,4293.3333,4131.7949,4128.7179,3951.7949,4132.3077,4162.5641,4141.5385,4080
4075.8974,4144.6154,4118.4615,4124.1026,4308.2051,4120,4123.0769,3949.7436,4129.7436,4153.8462,4140,4080
4065.641,4131.7949,4108.2051,4118.4615,4310.2564,4118.9744,4122.5641,3945.1282,4122.5641,4146.1538,4132.8205,4066.1538
4068.7179,4133.3333,4109.7436,4116.9231,4302.5641,4128.7179,4125.641,3944.6154,4121.0256,4148.7179,4134.359,4062.5641
4084.1026,4147.6923,4121.5385,4124.6154,4297.4359,4121.5385,4127.1795,3953.3333,4129.7436,4158.4615,4145.641,4078.9744
4088.7179,4152.3077,4124.6154,4128.2051,4302.5641,4113.8462,4126.6667,3956.4103,4137.9487,4162.5641,4151.7949,4084.6154
4080.5128,4143.0769,4113.8462,4117.4359,4303.0769,4123.5897,4124.6154,3943.5897,4130.7692,4153.8462,4145.641,4074.359
4074.8718,4138.9744,4110.7692,4111.7949,4297.4359,4127.1795,4124.1026,3931.7949,4121.0256,4147.1795,4139.4872,4072.3077
4071.7949,4145.1282,4111.7949,4114.359,4296.9231,4122.0513,4126.1538,3933.3333,4118.9744,4148.7179,4133.3333,4075.8974
4061.0256,4140,4106.1538,4109.2308,4289.2308,4122.5641,4121.0256,3931.7949,4107.1795,4143.5897,4121.5385,4066.6667
4067.1795,4138.9744,4106.1538,4107.6923,4280,4126.6667,4116.9231,3929.7436,4104.6154,4142.5641,4126.6667,4070.2564
4087.6923,4151.7949,4113.8462,4114.359,4289.2308,4125.1282,4120.5128,3937.4359,4120.5128,4151.2821,4140,4088.7179
4092.3077,4154.8718,4121.0256,4117.9487,4294.359,4115.3846,4120,3947.6923,4130.7692,4154.359,4143.5897,4094.8718
4090.2564,4153.3333,4120.5128,4117.9487,4289.2308,4114.359,4114.359,3955.3846,4135.8974,4152.3077,4149.2308,4094.359
4074.359,4147.1795,4109.7436,4110.2564,4289.2308,4123.5897,4109.2308,3945.1282,4131.2821,4146.6667,4143.5897,4084.1026
4055.8974,4136.4103,4102.5641,4103.0769,4289.7436,4123.0769,4110.7692,3930.2564,4124.6154,4142.5641,4131.2821,4077.9487
4071.7949,4143.5897,4111.7949,4109.2308,4280,4114.8718,4118.4615,3938.9744,4127.1795,4145.1282,4137.9487,4088.7179
4091.2821,4155.8974,4118.4615,4116.9231,4273.3333,4116.9231,4121.0256,3948.2051,4125.641,4148.2051,4142.5641,4092.3077
4078.4615,4153.3333,4113.3333,4116.4103,4276.9231,4126.1538,4121.5385,3945.641,4121.5385,4146.6667,4135.8974,4088.2051
4068.2051,4145.1282,4112.8205,4112.3077,4271.7949,4125.641,4127.6923,3948.2051,4123.5897,4143.0769,4136.4103,4087.6923
4079.4872,4147.1795,4115.3846,4111.2821,4262.0513,4121.5385,4129.2308,3947.1795,4124.1026,4143.0769,4140,4085.641
4082.0513,4156.4103,4115.3846,4114.359,4272.8205,4128.7179,4122.5641,3937.9487,4116.9231,4143.0769,4138.9744,4088.7179
4073.8462,4157.9487,4117.9487,4115.8974,4284.6154,4134.359,4122.0513,3933.8462,4109.2308,4143.0769,4133.8462,4090.2564
4078.9744,4155.3846,4120,4113.8462,4278.4615,4130.7692,4126.1538,3943.5897,4109.2308,4144.1026,4136.4103,4086.6667
4080,4150.2564,4116.9231,4111.2821,4268.2051,4119.4872,4126.1538,3950.2564,4113.3333,4141.0256,4146.6667,4089.2308
4077.9487,4151.7949,4116.9231,4115.3846,4264.6154,4109.7436,4123.5897,3945.1282,4122.0513,4139.4872,4155.3846,4100.5128
4087.6923,4160,4122.5641,4120.5128,4265.1282,4110.2564,4125.1282,3941.0256,4128.7179,4143.5897,4157.4359,4109.2308
4085.641,4156.9231,4121.5385,4116.9231,4263.0769,4118.9744,4132.3077,3945.641,4117.9487,4140,4150.2564,4105.641
4080.5128,4154.8718,4120,4118.4615,4258.4615,4124.6154,4138.4615,3954.359,4118.4615,4136.9231,4152.8205,4105.1282
4083.5897,4154.8718,4119.4872,4120.5128,4255.8974,4123.5897,4137.4359,3950.7692,4133.3333,4136.9231,4158.4615,4106.1538
4076.4103,4148.7179,4116.4103,4112.3077,4258.9744,4121.0256,4138.9744,3945.1282,4123.5897,4134.359,4153.8462,4102.5641
4076.4103,4150.7692,4121.5385,4109.7436,4265.1282,4118.4615,4140,3953.3333,4117.4359,4138.9744,4155.3846,4106.1538
4088.7179,4158.4615,4129.7436,4117.4359,4259.4872,4116.9231,4131.2821,3953.8462,4131.2821,4143.5897,4158.4615,4109.7436
4089.7436,4159.4872,4130.2564,4121.5385,4255.8974,4122.0513,4130.2564,3947.1795,4136.9231,4139.4872,4160,4113.8462
4081.5385,4151.2821,4124.6154,4117.9487,4257.9487,4114.8718,4132.3077,3946.6667,4125.1282,4133.3333,4157.4359,4112.8205
4083.5897,4147.1795,4120.5128,4116.4103,4249.7436,4087.1795,4126.6667,3945.1282,4118.9744,4133.8462,4151.2821,4107.6923
4095.3846,4155.8974,4123.0769,4122.0513,4240.5128,4077.4359,4122.5641,3943.5897,4125.641,4138.4615,4152.3077,4108.7179
4091.7949,4152.8205,4126.1538,4125.1282,4240,4092.3077,4126.6667,3944.6154,4126.6667,4141.0256,4155.3846,4109.7436
4083.5897,4144.1026,4127.1795,4126.1538,4243.0769,4091.7949,4131.7949,3948.7179,4132.3077,4148.7179,4157.9487,4114.359
4086.6667,4148.2051,4129.7436,4128.2051,4240.5128,4087.1795,4134.359,3953.8462,4137.9487,4150.7692,4159.4872,4118.4615
4094.359,4154.8718,4131.2821,4128.7179,4238.4615,4096.4103,4137.4359,3957.9487,4141.5385,4146.1538,4163.5897,4115.3846
4102.5641,4157.4359,4131.7949,4129.2308,4242.5641,4100.5128,4137.4359,3963.5897,4149.7436,4146.1538,4169.7436,4122.5641
4095.8974,4149.7436,4127.6923,4128.7179,4240,4095.8974,4137.4359,3966.1538,4137.9487,4142.0513,4160,4124.1026
4086.6667,4141.5385,4119.4872,4123.5897,4237.9487,4106.1538,4138.4615,3960.5128,4120.5128,4134.359,4146.1538,4111.7949
4091.2821,4142.5641,4117.9487,4116.4103,4238.9744,4113.8462,4136.9231,3962.0513,4129.2308,4138.4615,4153.8462,4113.8462
4093.8462,4144.6154,4121.5385,4116.4103,4231.7949,4106.1538,4136.9231,3969.7436,4144.1026,4146.1538,4160.5128,4124.1026
4083.0769,4144.1026,4123.5897,4126.1538,4228.7179,4111.7949,4138.4615,3970.2564,4141.0256,4142.0513,4156.9231,4121.0256
4080.5128,4144.6154,4126.1538,4127.6923,4232.8205,4120,4137.4359,3969.7436,4137.9487,4137.4359,4163.0769,4115.8974
4105.1282,4152.8205,4132.3077,4125.1282,4229.2308,4111.7949,4136.9231,3976.4103,4151.2821,4145.641,4175.8974,4130.7692
4120.5128,4163.0769,4136.9231,4132.8205,4221.0256,4106.1538,4137.9487,3982.0513,4158.9744,4150.2564,4178.4615,4147.1795
4102.5641,4157.9487,4132.8205,4133.3333,4220,4118.4615,4132.8205,3975.8974,4144.6154,4144.6154,4170.2564,4140.5128
4093.3333,4148.2051,4125.641,4123.0769,4225.1282,4127.1795,4130.7692,3971.7949,4136.9231,4144.1026,4170.7692,4130.7692
4101.0256,4147.1795,4119.4872,4119.4872,4221.5385,4121.5385,4134.8718,3972.3077,4140,4145.641,4175.3846,4131.2821
4103.5897,4149.7436,4122.0513,4124.1026,4215.8974,4120,4135.8974,3971.7949,4135.3846,4143.5897,4173.8462,4133.8462
4101.5385,4148.7179,4127.6923,4124.1026,4221.0256,4123.5897,4130.7692,3969.7436,4136.4103,4138.4615,4175.3846,4134.8718
4089.2308,4137.9487,4119.4872,4114.359,4219.4872,4125.1282,4127.6923,3963.0769,4137.9487,4131.2821,4168.7179,4126.1538
4078.4615,4129.2308,4111.2821,4110.2564,4208.2051,4124.6154,4125.641,3961.5385,4132.3077,4129.2308,4160,4119.4872
4087.6923,4127.1795,4114.8718,4114.359,4201.0256,4122.0513,4125.1282,3963.0769,4126.1538,4130.2564,4157.4359,4126.6667
4101.5385,4127.6923,4119.4872,4118.9744,4206.1538,4123.0769,4126.6667,3961.5385,4124.6154,4132.3077,4158.4615,4133.3333
4100.5128,4127.6923,4118.9744,4123.0769,4212.3077,4127.6923,4123.0769,3954.359,4132.3077,4132.8205,4157.9487,4133.3333
4093.8462,4123.5897,4117.9487,4125.641,4198.4615,4121.0256,4120,3944.6154,4134.8718,4129.7436,4152.8205,4130.7692
4095.8974,4124.6154,4119.4872,4128.7179,4187.6923,4114.359,4122.5641,3950.2564,4132.3077,4131.2821,4155.8974,4128.7179
4098.4615,4127.6923,4119.4872,4126.1538,4203.0769,4129.2308,4124.6154,3955.8974,4137.9487,4130.7692,4166.1538,4125.1282
4096.4103,4121.5385,4113.8462,4120.5128,4212.8205,4136.9231,4125.1282,3948.7179,4142.0513,4123.5897,4164.6154,4120.5128
4095.8974,4114.359,4106.6667,4121.0256,4202.0513,4129.2308,4124.1026,3943.5897,4133.3333,4121.0256,4153.8462,4113.3333
4101.0256,4117.4359,4107.1795,4127.1795,4195.3846,4131.7949,4124.6154,3942.5641,4132.8205,4127.1795,4150.7692,4107.6923
4112.8205,4123.0769,4115.3846,4130.2564,4198.9744,4137.4359,4124.1026,3943.5897,4150.2564,4129.2308,4156.9231,4113.3333
4114.8718,4116.4103,4111.2821,4121.0256,4194.359,4133.8462,4121.5385,3940.5128,4146.6667,4120.5128,4154.8718,4114.359
4102.5641,4108.7179,4105.1282,4112.3077,4183.5897,4128.2051,4121.5385,3929.2308,4127.1795,4119.4872,4149.2308,4107.1795
4105.641,4113.3333,4111.7949,4119.4872,4174.359,4130.7692,4124.1026,3931.7949,4135.3846,4126.1538,4155.8974,4113.8462
4112.8205,4111.2821,4114.359,4120,4171.2821,4132.8205,4124.1026,3948.7179,4145.641,4125.1282,4156.4103,4117.4359
4112.8205,4108.7179,4115.8974,4109.2308,4178.4615,4128.2051,4123.5897,3951.7949,4136.9231,4127.1795,4151.2821,4112.8205
4121.5385,4120,4125.1282,4117.9487,4182.0513,4126.1538,4123.0769,3946.6667,4139.4872,4134.8718,4157.9487,4117.4359
4126.6667,4117.9487,4122.5641,4130.7692,4177.4359,4128.7179,4122.0513,3943.0769,4144.6154,4133.8462,4158.9744,4117.9487
4116.9231,4104.6154,4109.2308,4118.9744,4176.9231,4131.2821,4121.0256,3939.4872,4137.4359,4121.5385,4149.7436,4109.2308
4105.1282,4099.4872,4103.0769,4104.6154,4173.8462,4130.2564,4118.9744,3934.359,4127.6923,4114.359,4144.6154,4101.0256
4109.2308,4105.641,4108.7179,4110.2564,4170.2564,4136.4103,4118.9744,3933.8462,4132.3077,4123.5897,4150.7692,4102.5641
4120,4112.3077,4116.9231,4117.9487,4171.7949,4140.5128,4123.0769,3942.0513,4149.2308,4132.3077,4159.4872,4109.7436
4118.9744,4105.641,4118.4615,4115.3846,4170.7692,4134.8718,4126.6667,3953.3333,4154.359,4131.7949,4158.9744,4109.2308
4115.3846,4108.2051,4120,4116.4103,4169.7436,4134.8718,4125.1282,3959.4872,4149.2308,4135.8974,4158.9744,4115.3846
4117.4359,4118.4615,4120.5128,4117.4359,4164.6154,4137.9487,4121.5385,3948.7179,4147.6923,4134.8718,4155.3846,4121.5385
4124.6154,4120.5128,4118.9744,4114.359,4158.4615,4138.9744,4122.5641,3941.5385,4153.3333,4132.3077,4155.3846,4120.5128
4128.2051,4122.5641,4125.1282,4117.9487,4162.5641,4137.9487,4126.6667,3953.3333,4157.9487,4142.0513,4162.5641,4124.6154
4127.6923,4127.1795,4130.7692,4118.9744,4164.6154,4131.2821,4125.641,3957.4359,4155.8974,4145.641,4157.9487,4128.2051
4134.359,4131.7949,4129.7436,4114.359,4158.4615,4129.2308,4121.5385,3951.2821,4157.9487,4140,4154.8718,4128.7179
4131.7949,4126.1538,4129.2308,4113.3333,4153.8462,4137.4359,4122.5641,3950.2564,4156.4103,4138.4615,4157.9487,4126.1538
4119.4872,4125.1282,4132.3077,4117.4359,4154.8718,4142.0513,4125.641,3953.8462,4153.8462,4140,4157.4359,4128.2051
4133.3333,4138.4615,4134.8718,4118.4615,4157.9487,4141.5385,4124.1026,3957.9487,4161.0256,4144.1026,4165.641,4141.0256
4143.0769,4138.4615,4133.3333,4113.8462,4155.3846,4145.641,4121.0256,3956.4103,4165.1282,4145.1282,4169.2308,4144.1026
4117.9487,4127.6923,4126.6667,4113.8462,4156.4103,4149.2308,4122.5641,3953.8462,4158.9744,4141.0256,4156.4103,4131.7949
4103.0769,4123.5897,4123.5897,4115.3846,4154.359,4141.0256,4125.1282,3955.8974,4145.1282,4136.9231,4145.1282,4121.0256
4124.1026,4123.5897,4130.2564,4112.8205,4140,4129.2308,4122.5641,3960,4146.6667,4142.5641,4151.7949,4127.6923
4141.0256,4124.1026,4130.2564,4112.8205,4133.8462,4128.2051,4120.5128,3960,4170.7692,4148.2051,4161.0256,4140.5128
4129.7436,4124.6154,4123.0769,4112.8205,4145.1282,4132.8205,4125.641,3957.4359,4177.4359,4147.1795,4157.9487,4139.4872
4127.6923,4124.6154,4125.1282,4111.2821,4153.3333,4140,4128.2051,3963.5897,4163.5897,4148.7179,4158.9744,4133.3333
4130.2564,4123.0769,4126.1538,4109.7436,4144.6154,4146.6667,4123.0769,3964.6154,4157.4359,4147.6923,4162.5641,4129.2308
4118.4615,4119.4872,4121.5385,4110.7692,4136.9231,4141.5385,4121.0256,3960,4156.4103,4142.5641,4154.8718,4122.0513
4118.4615,4121.0256,4125.641,4116.9231,4134.359,4134.359,4128.7179,3962.5641,4152.3077,4137.4359,4147.1795,4122.0513
4127.1795,4127.1795,4129.7436,4121.5385,4128.2051,4134.8718,4134.359,3964.1026,4150.2564,4132.3077,4149.2308,4124.6154
4125.1282,4123.0769,4126.6667,4120.5128,4139.4872,4140,4130.7692,3965.641,4155.3846,4136.9231,4157.9487,4123.0769
4113.3333,4112.3077,4120,4117.9487,4144.6154,4142.5641,4124.6154,3962.5641,4152.3077,4138.4615,4151.2821,4120.5128
4116.4103,4118.4615,4118.4615,4120.5128,4120,4142.5641,4125.1282,3954.8718,4141.0256,4138.9744,4136.9231,4124.6154
4136.9231,4137.9487,4128.2051,4122.5641,4116.4103,4141.0256,4131.7949,3964.6154,4149.2308,4149.7436,4148.2051,4143.0769
4138.9744,4132.8205,4129.7436,4116.4103,4140,4136.9231,4129.2308,3978.4615,4161.0256,4151.7949,4161.0256,4148.2051
4127.6923,4123.5897,4124.1026,4118.9744,4141.5385,4140,4124.6154,3978.4615,4157.4359,4145.641,4155.3846,4139.4872
4128.2051,4131.7949,4127.1795,4125.1282,4128.7179,4146.6667,4128.7179,3982.5641,4152.3077,4144.1026,4150.7692,4136.4103
4126.1538,4128.2051,4129.7436,4116.4103,4130.7692,4143.5897,4131.2821,3987.6923,4153.3333,4140.5128,4150.7692,4130.7692
4120.5128,4125.1282,4125.641,4111.7949,4133.3333,4142.5641,4125.641,3986.6667,4162.5641,4140,4153.3333,4133.3333
4126.6667,4132.3077,4126.6667,4121.5385,4130.7692,4150.7692,4124.1026,3985.641,4163.0769,4149.2308,4155.8974,4141.5385
4136.9231,4133.3333,4130.2564,4126.1538,4134.8718,4152.8205,4128.7179,3986.1538,4161.0256,4153.8462,4156.9231,4139.4872
4123.0769,4124.1026,4122.0513,4115.8974,4128.7179,4147.6923,4128.7179,3983.5897,4165.641,4143.0769,4157.9487,4128.7179
4101.0256,4114.359,4113.8462,4107.6923,4120,4146.1538,4124.1026,3976.9231,4154.359,4131.7949,4155.8974,4120
4111.7949,4123.0769,4116.9231,4116.9231,4129.2308,4148.7179,4125.1282,3975.3846,4140.5128,4131.7949,4158.4615,4122.5641
4121.5385,4129.2308,4120,4124.1026,4133.3333,4148.7179,4132.8205,3981.5385,4146.1538,4133.8462,4163.0769,4124.6154
4104.6154,4118.9744,4121.0256,4116.4103,4120.5128,4147.6923,4137.4359,3988.2051,4151.7949,4132.3077,4162.5641,4124.1026
4104.1026,4114.359,4122.0513,4111.2821,4116.4103,4149.2308,4132.8205,3990.2564,4151.2821,4133.8462,4165.1282,4126.1538
4123.0769,4118.4615,4123.5897,4114.8718,4115.8974,4145.1282,4127.6923,3992.8205,4157.4359,4141.5385,4169.7436,4126.6667
4126.6667,4123.0769,4125.1282,4118.9744,4113.3333,4142.5641,4127.6923,4000,4157.9487,4149.2308,4171.2821,4129.7436
4121.0256,4123.5897,4124.6154,4115.8974,4117.9487,4147.1795,4131.7949,4001.5385,4151.2821,4146.1538,4169.2308,4131.7949
4122.0513,4121.0256,4124.1026,4113.8462,4124.6154,4148.2051,4136.9231,3996.4103,4153.8462,4138.9744,4169.2308,4128.2051
4115.3846,4115.8974,4122.5641,4110.7692,4125.641,4144.6154,4132.8205,3994.359,4148.2051,4133.8462,4170.2564,4126.1538
4103.0769,4111.2821,4116.4103,4104.1026,4115.8974,4141.5385,4127.6923,3993.3333,4131.7949,4130.2564,4163.0769,4120
4105.641,4110.2564,4113.3333,4103.0769,4113.8462,4145.1282,4133.8462,3995.8974,4132.8205,4131.7949,4158.9744,4116.9231
4110.2564,4109.7436,4121.5385,4111.7949,4125.1282,4149.7436,4140.5128,4001.0256,4141.0256,4135.8974,4164.6154,4125.641
4110.7692,4113.8462,4128.7179,4117.4359,4125.1282,4145.1282,4137.9487,4002.5641,4144.1026,4141.5385,4175.8974,4137.9487
4117.9487,4117.9487,4130.7692,4113.3333,4110.7692,4138.9744,4135.8974,3998.4615,4146.6667,4144.6154,4180,4139.4872
4121.0256,4114.359,4129.2308,4110.2564,4100.5128,4140,4136.9231,3993.8462,4140.5128,4144.6154,4168.2051,4126.6667
4124.6154,4121.5385,4130.7692,4120.5128,4113.3333,4144.6154,4135.3846,4005.641,4145.641,4149.2308,4176.9231,4132.8205
4127.1795,4128.2051,4135.3846,4127.6923,4127.6923,4144.6154,4135.8974,4013.8462,4159.4872,4147.6923,4196.9231,4147.1795
4112.8205,4112.3077,4133.3333,4116.4103,4124.6154,4147.6923,4140,4009.7436,4155.8974,4142.0513,4180,4133.3333
4108.7179,4107.1795,4132.3077,4110.2564,4117.4359,4151.2821,4142.0513,4018.4615,4156.4103,4145.641,4169.7436,4127.6923
4117.4359,4117.9487,4130.2564,4110.2564,4113.8462,4144.1026,4138.4615,4016.9231,4158.9744,4144.1026,4184.1026,4143.5897
4114.359,4117.4359,4122.0513,4104.6154,4113.8462,4140,4131.7949,4002.0513,4147.1795,4130.7692,4180.5128,4142.5641
4104.1026,4105.1282,4118.9744,4100,4107.1795,4140.5128,4133.3333,4002.0513,4142.0513,4125.641,4163.5897,4126.6667
4094.8718,4094.8718,4117.9487,4093.8462,4098.9744,4140,4138.4615,4005.641,4144.6154,4128.7179,4160,4120
4092.3077,4093.3333,4110.2564,4087.1795,4100,4140,4135.8974,4005.641,4139.4872,4125.641,4157.9487,4116.4103
4093.8462,4093.8462,4108.2051,4084.1026,4096.4103,4137.9487,4133.8462,4010.2564,4128.7179,4123.0769,4145.641,4109.7436
4103.0769,4106.1538,4124.1026,4091.7949,4091.2821,4135.8974,4137.9487,4018.9744,4138.4615,4134.8718,4157.4359,4123.0769
4111.7949,4116.4103,4132.3077,4103.5897,4094.359,4134.359,4138.4615,4020.5128,4153.3333,4141.5385,4172.8205,4136.9231
4103.5897,4097.9487,4114.8718,4098.9744,4098.9744,4136.4103,4137.4359,4011.2821,4140.5128,4134.8718,4148.7179,4122.5641
4092.8205,4082.0513,4103.0769,4085.641,4098.4615,4142.5641,4137.9487,4007.1795,4126.6667,4129.7436,4129.2308,4110.2564
4088.7179,4090.2564,4110.2564,4088.2051,4100.5128,4142.5641,4137.9487,4011.2821,4137.4359,4130.7692,4143.0769,4117.9487
4099.4872,4103.5897,4115.8974,4097.9487,4110.2564,4140,4141.0256,4017.4359,4146.6667,4138.9744,4157.9487,4127.6923
4115.8974,4104.6154,4114.359,4095.3846,4111.7949,4144.6154,4142.0513,4018.9744,4139.4872,4143.0769,4154.359,4128.7179
4110.2564,4099.4872,4113.3333,4086.1538,4104.1026,4144.1026,4138.4615,4016.4103,4137.4359,4133.3333,4146.6667,4127.1795
4100,4103.5897,4114.359,4085.641,4103.5897,4136.4103,4136.9231,4014.8718,4148.7179,4126.6667,4149.7436,4130.2564
4104.6154,4100,4115.8974,4091.7949,4096.9231,4134.359,4137.4359,4011.2821,4144.6154,4129.7436,4147.6923,4129.2308
4106.1538,4083.5897,4117.9487,4094.8718,4078.4615,4131.2821,4137.4359,4004.1026,4129.2308,4129.7436,4134.359,4123.5897
4100,4084.6154,4118.9744,4088.2051,4078.9744,4127.6923,4135.8974,4008.7179,4133.8462,4131.2821,4132.8205,4127.1795
4110.7692,4107.6923,4125.1282,4085.1282,4104.6154,4140,4137.9487,4024.6154,4147.1795,4140.5128,4144.1026,4137.4359
4138.9744,4126.1538,4142.5641,4101.0256,4123.5897,4156.9231,4149.7436,4038.9744,4161.0256,4152.8205,4160,4158.4615
4143.5897,4121.0256,4151.7949,4112.8205,4121.0256,4154.8718,4152.3077,4041.5385,4170.7692,4156.4103,4166.1538,4169.7436
4134.8718,4118.9744,4152.8205,4111.7949,4121.0256,4146.1538,4146.6667,4043.0769,4171.7949,4155.8974,4168.2051,4164.1026
4143.5897,4131.2821,4155.8974,4120.5128,4124.1026,4148.2051,4147.1795,4052.3077,4175.8974,4157.9487,4175.8974,4167.1795
4144.6154,4127.6923,4149.2308,4125.641,4117.9487,4156.4103,4152.3077,4046.6667,4170.2564,4154.8718,4170.7692,4168.7179
4138.4615,4122.5641,4142.0513,4116.4103,4124.1026,4162.5641,4154.359,4038.9744,4161.5385,4150.2564,4158.9744,4163.0769
4137.9487,4124.1026,4146.6667,4110.2564,4132.8205,4156.9231,4153.8462,4044.6154,4158.4615,4148.7179,4156.4103,4158.9744
4139.4872,4121.0256,4150.7692,4116.4103,4122.5641,4151.2821,4153.3333,4047.1795,4157.9487,4149.7436,4163.5897,4156.4103
4140.5128,4118.4615,4147.6923,4121.0256,4115.3846,4154.359,4153.8462,4042.0513,4158.4615,4150.2564,4169.2308,4158.4615
4141.5385,4120,4147.6923,4111.7949,4122.0513,4153.3333,4155.8974,4041.0256,4163.0769,4152.8205,4169.7436,4162.5641
4153.8462,4130.7692,4158.9744,4110.2564,4128.7179,4153.3333,4153.8462,4052.8205,4180,4158.4615,4180.5128,4175.3846
4164.1026,4146.1538,4168.2051,4125.641,4122.0513,4154.8718,4153.8462,4059.4872,4184.6154,4156.9231,4191.7949,4185.1282
4153.3333,4147.1795,4160.5128,4131.2821,4113.8462,4153.8462,4154.8718,4050.7692,4167.6923,4152.3077,4182.0513,4176.4103
4144.6154,4144.1026,4152.8205,4120,4124.6154,4160.5128,4152.3077,4044.1026,4166.6667,4149.7436,4169.7436,4169.2308
4154.359,4149.7436,4158.9744,4113.3333,4135.8974,4165.1282,4154.8718,4055.3846,4180.5128,4149.2308,4174.359,4178.9744
4161.0256,4149.7436,4164.6154,4117.9487,4129.7436,4158.9744,4158.9744,4069.7436,4181.0256,4150.2564,4179.4872,4188.7179
4151.7949,4135.8974,4153.8462,4116.9231,4123.0769,4159.4872,4157.4359,4064.6154,4169.7436,4148.7179,4174.359,4180.5128
4147.6923,4130.2564,4146.6667,4114.8718,4127.1795,4163.5897,4153.8462,4049.7436,4163.0769,4147.1795,4166.1538,4170.2564
4151.7949,4135.8974,4155.3846,4119.4872,4132.8205,4163.0769,4151.7949,4046.6667,4171.2821,4150.2564,4167.6923,4174.359
4150.2564,4134.8718,4160.5128,4121.5385,4128.2051,4161.5385,4151.7949,4050.7692,4179.4872,4152.8205,4175.3846,4180
4156.9231,4136.9231,4161.5385,4127.6923,4120,4157.4359,4151.7949,4052.8205,4186.1538,4158.9744,4182.0513,4186.6667
4161.5385,4138.9744,4162.0513,4129.7436,4121.0256,4152.3077,4149.2308,4051.7949,4187.1795,4161.0256,4177.9487,4188.7179
4159.4872,4136.4103,4165.1282,4127.6923,4128.2051,4161.0256,4152.3077,4056.4103,4181.0256,4157.9487,4177.4359,4184.6154
4182.0513,4153.3333,4184.6154,4143.0769,4137.4359,4182.0513,4168.2051,4078.9744,4192.3077,4169.2308,4200,4200
4194.8718,4162.5641,4196.9231,4152.8205,4150.2564,4192.3077,4178.4615,4093.3333,4202.5641,4178.9744,4204.1026,4213.3333
4174.359,4146.6667,4184.6154,4143.0769,4148.2051,4183.0769,4173.3333,4082.0513,4188.7179,4174.359,4186.1538,4200
4168.7179,4136.4103,4174.359,4146.6667,4135.3846,4174.8718,4170.2564,4075.3846,4177.4359,4170.7692,4182.5641,4190.2564
4171.2821,4133.3333,4168.7179,4148.7179,4135.8974,4179.4872,4170.2564,4081.5385,4178.9744,4164.1026,4176.4103,4183.5897
4149.7436,4117.9487,4154.8718,4127.6923,4135.8974,4180,4159.4872,4070.2564,4163.5897,4149.2308,4151.7949,4164.1026
4131.7949,4103.0769,4148.7179,4121.0256,4119.4872,4169.2308,4148.7179,4047.1795,4145.1282,4146.1538,4137.4359,4147.6923
4142.5641,4110.7692,4157.4359,4134.8718,4110.7692,4163.5897,4151.7949,4046.1538,4160,4160,4149.7436,4158.9744
4158.4615,4126.1538,4160.5128,4134.8718,4120,4166.1538,4154.359,4049.2308,4173.3333,4164.6154,4156.9231,4170.7692
4158.4615,4123.0769,4156.9231,4125.641,4115.3846,4168.2051,4146.1538,4027.1795,4157.9487,4158.9744,4144.6154,4159.4872
4159.4872,4118.9744,4158.4615,4129.7436,4108.7179,4171.7949,4140,4014.359,4156.9231,4160,4144.1026,4154.8718
4167.6923,4123.0769,4157.4359,4131.7949,4108.7179,4169.2308,4140.5128,4022.0513,4170.2564,4163.0769,4154.359,4162.5641
4173.8462,4127.6923,4158.4615,4124.1026,4104.1026,4164.6154,4143.5897,4022.5641,4166.1538,4168.7179,4154.359,4164.6154
4171.2821,4126.6667,4161.0256,4120.5128,4105.641,4177.9487,4144.1026,4022.5641,4161.5385,4171.7949,4152.3077,4160
4156.4103,4112.3077,4151.2821,4114.8718,4109.7436,4187.6923,4141.0256,4026.6667,4168.7179,4163.5897,4151.7949,4149.2308
4151.2821,4100.5128,4141.5385,4106.1538,4105.1282,4178.9744,4142.0513,4028.7179,4168.2051,4156.4103,4151.7949,4142.0513
4151.7949,4101.0256,4139.4872,4099.4872,4097.4359,4172.3077,4146.6667,4025.1282,4149.7436,4150.2564,4141.0256,4140
4151.2821,4107.1795,4138.9744,4097.9487,4097.9487,4174.359,4146.1538,4019.4872,4140.5128,4149.2308,4131.7949,4134.359
4158.9744,4111.7949,4145.641,4104.1026,4103.5897,4174.8718,4143.5897,4019.4872,4154.359,4152.8205,4144.1026,4138.9744
4158.9744,4110.2564,4149.2308,4101.0256,4103.5897,4176.4103,4143.0769,4020.5128,4162.0513,4149.2308,4151.7949,4146.6667
4154.359,4109.2308,4144.6154,4095.3846,4104.1026,4177.4359,4140.5128,4026.1538,4160,4147.6923,4145.641,4148.2051
4159.4872,4112.8205,4146.6667,4103.0769,4104.1026,4168.7179,4140,4027.1795,4159.4872,4154.8718,4138.4615,4146.1538
4161.5385,4111.7949,4155.3846,4108.2051,4101.0256,4163.0769,4140,4019.4872,4156.9231,4160.5128,4137.4359,4147.6923
4153.3333,4107.1795,4155.8974,4095.8974,4098.4615,4170.2564,4134.8718,4011.7949,4161.5385,4158.9744,4144.1026,4151.7949
4149.2308,4101.0256,4147.1795,4084.1026,4090.7692,4171.2821,4136.4103,4010.7692,4166.1538,4151.2821,4144.1026,4147.1795
4156.4103,4102.5641,4144.1026,4091.7949,4090.7692,4169.7436,4145.1282,4021.5385,4161.5385,4149.2308,4142.5641,4138.9744
4158.4615,4100,4146.6667,4094.8718,4097.4359,4172.3077,4144.1026,4032.3077,4157.9487,4153.8462,4147.1795,4138.4615
4151.7949,4094.359,4146.1538,4085.641,4092.8205,4170.7692,4140.5128,4033.3333,4156.4103,4153.3333,4149.2308,4139.4872
4153.8462,4104.6154,4145.641,4090.7692,4093.8462,4172.8205,4146.1538,4037.9487,4160,4154.8718,4154.8718,4141.5385
4162.0513,4110.2564,4149.7436,4097.4359,4098.4615,4176.4103,4148.7179,4038.4615,4164.1026,4161.0256,4158.9744,4142.0513
4167.1795,4108.2051,4157.4359,4094.8718,4091.2821,4168.2051,4143.0769,4033.8462,4163.0769,4160.5128,4156.9231,4146.1538
4162.0513,4111.2821,4154.359,4094.359,4086.6667,4163.0769,4137.4359,4030.7692,4153.3333,4153.8462,4154.359,4145.641
4157.9487,4111.7949,4151.2821,4095.3846,4095.8974,4167.1795,4134.8718,4024.1026,4150.2564,4158.9744,4156.9231,4142.0513
4165.1282,4110.2564,4157.9487,4099.4872,4095.8974,4162.5641,4133.3333,4018.4615,4164.1026,4169.7436,4164.1026,4152.8205
4162.0513,4106.1538,4155.8974,4100,4079.4872,4152.8205,4132.3077,4017.9487,4162.5641,4163.5897,4163.5897,4153.8462
4152.8205,4108.2051,4150.2564,4095.3846,4082.5641,4156.9231,4136.4103,4026.6667,4159.4872,4157.4359,4166.6667,4145.641
4152.3077,4117.4359,4155.3846,4094.359,4100.5128,4166.1538,4140.5128,4038.4615,4173.8462,4162.5641,4176.4103,4149.7436
4147.1795,4113.8462,4155.3846,4098.4615,4092.3077,4165.1282,4140,4034.359,4166.1538,4158.4615,4165.641,4146.1538
4136.9231,4096.4103,4142.5641,4091.2821,4074.359,4159.4872,4134.359,4021.0256,4144.6154,4144.1026,4146.1538,4134.8718
4131.7949,4084.6154,4139.4872,4078.9744,4073.8462,4155.3846,4130.2564,4021.0256,4145.641,4141.5385,4144.6154,4133.3333
4134.8718,4093.8462,4148.2051,4088.2051,4084.1026,4155.8974,4134.359,4034.359,4157.4359,4154.8718,4152.3077,4142.0513
4149.2308,4109.7436,4152.8205,4102.5641,4088.2051,4157.4359,4138.4615,4045.1282,4155.3846,4161.5385,4152.3077,4149.2308
4161.0256,4111.7949,4154.8718,4105.1282,4088.7179,4154.359,4137.9487,4047.1795,4157.9487,4161.0256,4155.3846,4155.8974
4163.5897,4114.359,4161.0256,4109.7436,4097.9487,4155.3846,4135.8974,4048.2051,4169.2308,4166.6667,4168.2051,4164.6154
4153.8462,4114.8718,4157.4359,4104.6154,4101.0256,4162.5641,4137.4359,4043.0769,4165.641,4164.6154,4161.0256,4160.5128
4141.5385,4107.6923,4146.6667,4093.3333,4090.2564,4164.1026,4140,4032.3077,4150.2564,4156.9231,4146.1538,4149.7436
4145.641,4111.2821,4150.2564,4102.5641,4087.1795,4156.4103,4138.9744,4036.4103,4149.7436,4160,4150.7692,4149.7436
4141.5385,4113.8462,4151.2821,4105.641,4093.8462,4150.7692,4134.8718,4045.641,4163.5897,4159.4872,4154.359,4145.641
4128.2051,4110.7692,4142.0513,4091.2821,4097.4359,4153.8462,4136.9231,4047.1795,4167.1795,4149.2308,4151.2821,4136.9231
4129.2308,4114.359,4139.4872,4091.2821,4097.4359,4155.3846,4140.5128,4047.1795,4152.8205,4145.1282,4147.1795,4132.3077
4134.359,4110.7692,4140,4091.7949,4098.4615,4157.4359,4140,4044.1026,4139.4872,4145.641,4139.4872,4126.1538
4127.1795,4097.4359,4136.9231,4077.4359,4095.3846,4160,4137.9487,4036.4103,4141.0256,4144.6154,4137.9487,4124.6154
4124.6154,4098.4615,4138.9744,4077.4359,4090.2564,4156.4103,4138.9744,4030.7692,4141.0256,4147.1795,4143.0769,4130.2564
4132.8205,4105.641,4142.5641,4084.1026,4092.3077,4157.9487,4140.5128,4033.3333,4139.4872,4150.2564,4141.0256,4131.7949
4127.6923,4096.9231,4137.9487,4074.359,4090.7692,4157.4359,4137.9487,4030.7692,4143.0769,4148.2051,4140,4128.7179
4125.641,4093.3333,4136.4103,4071.2821,4085.641,4148.7179,4137.4359,4030.7692,4144.1026,4151.2821,4145.641,4129.7436
4137.4359,4100.5128,4143.0769,4081.0256,4080.5128,4148.7179,4137.9487,4043.0769,4150.2564,4154.8718,4148.2051,4136.4103
4128.2051,4098.4615,4143.0769,4084.6154,4076.9231,4152.3077,4137.9487,4046.1538,4151.2821,4150.2564,4150.7692,4135.3846
4120,4103.0769,4141.0256,4089.7436,4090.7692,4150.2564,4136.4103,4043.5897,4149.2308,4149.2308,4161.5385,4134.8718
4135.8974,4116.4103,4148.7179,4095.3846,4105.1282,4150.7692,4136.9231,4044.6154,4156.4103,4151.2821,4163.5897,4141.5385
4140,4112.3077,4151.7949,4089.7436,4101.5385,4155.3846,4137.9487,4040,4163.0769,4150.7692,4160,4141.5385
4137.4359,4105.641,4147.6923,4087.6923,4098.4615,4155.8974,4138.4615,4038.4615,4170.2564,4153.8462,4173.3333,4142.5641
4138.4615,4106.6667,4146.6667,4091.2821,4101.0256,4163.0769,4141.0256,4043.5897,4163.0769,4149.2308,4178.4615,4142.5641
4132.8205,4110.2564,4151.2821,4089.2308,4104.1026,4171.7949,4141.5385,4041.0256,4148.7179,4144.1026,4169.2308,4142.5641
4140.5128,4129.2308,4161.0256,4091.2821,4105.1282,4160,4138.4615,4041.0256,4158.9744,4154.359,4181.5385,4158.4615
4152.8205,4142.0513,4160,4095.8974,4098.4615,4148.2051,4135.3846,4045.641,4172.8205,4156.9231,4190.2564,4166.6667
4146.6667,4131.7949,4150.7692,4091.2821,4101.0256,4157.4359,4135.3846,4045.641,4167.1795,4147.6923,4182.5641,4161.0256
4148.2051,4137.4359,4155.3846,4091.2821,4105.641,4153.8462,4138.9744,4050.7692,4169.2308,4149.7436,4193.3333,4170.7692
4165.1282,4164.1026,4165.641,4102.0513,4094.359,4134.359,4142.0513,4058.9744,4178.9744,4155.8974,4204.1026,4185.641
4171.2821,4166.6667,4164.6154,4103.5897,4087.6923,4137.9487,4142.0513,4056.4103,4167.1795,4149.2308,4191.2821,4186.1538
4188.2051,4160,4172.8205,4104.6154,4092.8205,4148.2051,4144.6154,4059.4872,4171.2821,4156.4103,4202.5641,4213.3333
4230.2564,4181.0256,4195.3846,4120,4095.8974,4140,4144.6154,4075.3846,4208.2051,4177.9487,4237.4359,4270.7692
4243.5897,4183.5897,4194.8718,4124.6154,4085.641,4135.8974,4130.7692,4061.5385,4207.6923,4174.8718,4233.3333,4285.1282
4237.4359,4169.2308,4183.5897,4120,4074.8718,4139.4872,4120,4032.3077,4173.8462,4169.7436,4212.8205,4271.2821
4260,4185.641,4193.8462,4125.1282,4072.3077,4130.2564,4122.5641,4038.4615,4173.3333,4177.9487,4223.5897,4284.1026
4268.2051,4195.8974,4199.4872,4120,4067.1795,4116.9231,4123.5897,4051.2821,4187.6923,4173.8462,4228.2051,4289.2308
4240,4181.0256,4188.2051,4107.1795,4076.4103,4121.0256,4119.4872,4044.6154,4183.5897,4164.1026,4215.8974,4272.3077
4214.8718,4167.1795,4175.3846,4104.6154,4094.359,4130.2564,4123.5897,4035.3846,4169.7436,4159.4872,4200.5128,4249.2308
4209.7436,4166.1538,4173.8462,4108.2051,4086.1538,4128.2051,4136.9231,4050.2564,4172.3077,4161.5385,4203.0769,4238.9744
4198.4615,4164.6154,4173.3333,4103.0769,4068.2051,4128.2051,4144.6154,4073.8462,4181.0256,4165.641,4220,4240.5128
4170.7692,4143.0769,4158.4615,4089.2308,4075.8974,4134.8718,4141.5385,4068.2051,4162.5641,4155.3846,4196.9231,4219.4872
4158.9744,4118.4615,4149.2308,4088.2051,4081.5385,4129.2308,4135.8974,4054.359,4152.3077,4146.6667,4160.5128,4196.4103
4157.4359,4106.1538,4149.7436,4090.2564,4063.0769,4114.359,4129.7436,4056.9231,4158.9744,4149.7436,4155.3846,4194.8718
4144.1026,4098.4615,4142.0513,4075.8974,4064.1026,4121.0256,4124.1026,4055.3846,4142.5641,4148.7179,4149.7436,4183.0769
4136.4103,4096.9231,4133.3333,4071.7949,4086.1538,4142.0513,4124.6154,4047.6923,4123.0769,4143.0769,4134.359,4161.5385
4133.3333,4089.2308,4133.3333,4075.8974,4080.5128,4134.359,4124.6154,4047.1795,4123.5897,4144.6154,4125.1282,4154.359
4123.0769,4072.8205,4128.2051,4065.641,4061.5385,4111.2821,4122.5641,4049.7436,4123.0769,4142.0513,4119.4872,4149.7436
4104.1026,4057.9487,4111.7949,4053.3333,4055.3846,4105.1282,4120,4042.0513,4108.7179,4127.1795,4104.6154,4130.2564
4086.6667,4046.1538,4102.5641,4048.7179,4051.7949,4106.6667,4112.3077,4030.2564,4094.359,4120.5128,4086.6667,4112.8205
4082.5641,4033.8462,4103.0769,4040,4046.1538,4104.1026,4107.6923,4029.7436,4091.2821,4121.0256,4079.4872,4108.2051
4081.0256,4025.1282,4104.1026,4034.359,4044.6154,4098.9744,4116.4103,4036.4103,4095.3846,4119.4872,4081.0256,4105.641
4076.9231,4030.7692,4108.2051,4041.5385,4050.7692,4102.5641,4125.641,4044.6154,4098.4615,4120.5128,4085.641,4105.1282
4083.0769,4037.9487,4112.8205,4045.641,4053.3333,4111.7949,4117.4359,4044.1026,4094.8718,4120,4082.5641,4107.6923
4097.9487,4034.8718,4113.3333,4043.5897,4050.2564,4109.7436,4110.2564,4033.3333,4094.8718,4121.5385,4081.5385,4111.7949
4097.4359,4032.8205,4111.7949,4041.0256,4050.2564,4103.0769,4117.9487,4033.3333,4103.0769,4125.1282,4088.2051,4115.3846
4080,4032.3077,4108.7179,4034.359,4046.1538,4103.5897,4123.5897,4045.1282,4101.0256,4120,4081.5385,4108.7179
4074.8718,4035.8974,4106.1538,4035.3846,4047.6923,4112.8205,4117.9487,4050.2564,4093.8462,4111.2821,4070.2564,4099.4872
4078.4615,4040,4101.5385,4039.4872,4061.5385,4116.9231,4111.2821,4045.641,4092.3077,4110.2564,4068.7179,4093.3333
4080,4037.9487,4097.4359,4035.8974,4061.5385,4105.1282,4109.2308,4043.5897,4097.4359,4114.359,4073.3333,4093.3333
4087.1795,4042.5641,4102.0513,4038.4615,4044.1026,4095.3846,4107.1795,4048.2051,4108.2051,4117.4359,4083.0769,4108.7179
4089.7436,4042.0513,4107.1795,4044.1026,4041.0256,4103.5897,4106.6667,4045.641,4111.2821,4118.4615,4083.5897,4118.9744
4090.7692,4036.9231,4108.2051,4042.0513,4056.4103,4106.6667,4106.1538,4044.6154,4106.1538,4124.6154,4076.9231,4116.9231
4098.9744,4035.8974,4111.7949,4045.1282,4064.1026,4104.1026,4105.641,4048.2051,4103.5897,4125.1282,4076.9231,4116.9231
4098.4615,4034.359,4113.3333,4048.2051,4059.4872,4115.3846,4116.4103,4041.0256,4097.9487,4115.8974,4076.9231,4111.7949
4098.9744,4038.4615,4116.9231,4051.7949,4061.5385,4120,4122.5641,4038.4615,4098.4615,4114.8718,4076.9231,4114.359
4109.7436,4046.1538,4121.0256,4061.5385,4061.5385,4106.1538,4116.4103,4046.6667,4107.6923,4122.0513,4081.5385,4124.6154
4111.2821,4046.1538,4118.4615,4063.0769,4062.0513,4107.1795,4118.9744,4050.7692,4106.1538,4122.5641,4083.5897,4124.1026
4098.9744,4038.4615,4109.2308,4053.8462,4068.2051,4118.9744,4122.0513,4043.5897,4088.2051,4112.8205,4074.359,4110.7692
4085.641,4028.2051,4103.0769,4049.2308,4062.5641,4115.3846,4113.3333,4033.3333,4075.8974,4105.641,4062.5641,4097.4359
4088.7179,4030.2564,4106.6667,4056.9231,4056.9231,4108.7179,4111.7949,4041.5385,4085.641,4112.8205,4070.2564,4101.5385
4095.8974,4034.359,4107.6923,4060,4064.1026,4108.7179,4120.5128,4050.2564,4090.2564,4113.8462,4078.4615,4109.7436
4089.2308,4024.6154,4102.0513,4053.3333,4062.0513,4108.7179,4120.5128,4043.5897,4082.0513,4105.641,4073.8462,4106.1538
4085.641,4020.5128,4103.0769,4054.359,4052.3077,4104.6154,4118.4615,4049.7436,4089.7436,4108.7179,4082.5641,4110.2564
4093.8462,4027.6923,4114.359,4066.6667,4058.4615,4102.0513,4124.1026,4062.5641,4096.9231,4116.9231,4093.8462,4122.0513
4099.4872,4027.6923,4117.9487,4074.359,4071.7949,4109.2308,4126.1538,4055.3846,4092.3077,4118.9744,4088.2051,4123.5897
4091.7949,4020,4108.2051,4066.1538,4061.0256,4112.3077,4123.0769,4046.1538,4086.1538,4114.8718,4080.5128,4112.8205
4087.6923,4017.4359,4105.641,4063.5897,4048.7179,4108.7179,4122.5641,4052.3077,4079.4872,4108.7179,4077.9487,4102.0513
4100,4025.1282,4114.8718,4074.359,4059.4872,4116.4103,4124.1026,4058.4615,4081.5385,4107.6923,4078.9744,4101.5385
4103.5897,4031.2821,4116.9231,4078.9744,4070.2564,4123.5897,4125.1282,4061.0256,4092.3077,4113.3333,4087.6923,4107.6923
4106.1538,4034.8718,4112.8205,4079.4872,4073.8462,4115.3846,4123.5897,4072.3077,4101.5385,4117.4359,4102.5641,4118.4615
4122.0513,4037.4359,4116.9231,4083.0769,4072.8205,4108.7179,4122.5641,4076.9231,4107.1795,4118.9744,4112.8205,4130.2564
4118.4615,4028.2051,4116.9231,4081.0256,4064.1026,4113.8462,4123.0769,4067.1795,4106.6667,4118.4615,4111.7949,4131.7949
4107.1795,4017.9487,4112.8205,4078.9744,4060.5128,4113.3333,4121.0256,4060.5128,4098.9744,4115.3846,4110.2564,4128.2051
4116.4103,4021.0256,4116.4103,4081.5385,4068.2051,4107.1795,4122.0513,4063.0769,4093.3333,4114.8718,4110.7692,4125.641
4116.9231,4033.8462,4115.8974,4081.0256,4064.6154,4109.7436,4124.1026,4067.6923,4101.0256,4113.3333,4108.7179,4122.0513
4093.8462,4031.2821,4102.5641,4071.7949,4050.2564,4109.7436,4122.0513,4060,4103.5897,4102.0513,4105.641,4110.7692
4085.1282,4022.0513,4096.9231,4065.1282,4051.2821,4106.6667,4122.0513,4048.2051,4089.2308,4098.9744,4107.1795,4104.1026
4093.8462,4037.4359,4105.1282,4067.1795,4061.0256,4108.7179,4125.641,4052.3077,4092.3077,4107.6923,4121.5385,4114.359
4090.2564,4049.7436,4106.1538,4070.2564,4053.8462,4108.7179,4119.4872,4052.8205,4094.359,4103.5897,4123.5897,4115.8974
4095.8974,4045.641,4102.5641,4070.2564,4047.1795,4108.2051,4112.8205,4037.9487,4085.641,4098.4615,4113.3333,4106.6667
4114.8718,4054.359,4101.5385,4063.0769,4067.1795,4110.7692,4113.3333,4029.7436,4095.3846,4102.5641,4114.359,4106.6667
4116.4103,4063.5897,4103.5897,4064.1026,4050.2564,4101.5385,4112.8205,4032.3077,4113.8462,4102.5641,4123.5897,4112.3077
