"AF3","F7","F3","FC5","T7","P7","O1","O2","FC6","F4","F8","AF4"
4111.2821,4109.2308,4130.2564,4035.3846,4153.3333,4149.2308,4136.9231,4141.0256,4156.4103,4112.3077,4116.9231,4095.3846
4112.3077,4105.1282,4137.4359,4035.3846,4156.9231,4150.7692,4138.9744,4142.5641,4156.4103,4116.4103,4111.2821,4094.8718
4118.4615,4092.8205,4141.5385,4018.4615,4154.359,4146.6667,4135.8974,4134.359,4155.8974,4121.0256,4101.0256,4097.9487
4128.7179,4096.4103,4145.1282,4017.4359,4146.6667,4144.1026,4135.8974,4136.9231,4154.359,4126.6667,4103.0769,4108.7179
4141.0256,4103.0769,4148.7179,4031.7949,4154.8718,4148.7179,4146.1538,4152.8205,4159.4872,4131.2821,4123.0769,4120
4140,4092.8205,4146.1538,4023.5897,4160.5128,4147.6923,4148.7179,4156.4103,4162.5641,4128.2051,4129.2308,4117.9487
4132.3077,4091.7949,4141.5385,4016.9231,4153.8462,4144.1026,4143.5897,4146.6667,4164.1026,4123.0769,4119.4872,4115.3846
4127.1795,4101.0256,4136.9231,4026.6667,4144.6154,4139.4872,4142.5641,4137.4359,4156.4103,4120.5128,4110.2564,4103.5897
4118.9744,4093.3333,4132.8205,4019.4872,4155.8974,4142.5641,4144.1026,4136.9231,4140.5128,4117.4359,4095.3846,4080.5128
4114.8718,4082.5641,4128.7179,4006.1538,4168.7179,4149.7436,4139.4872,4139.4872,4143.0769,4112.3077,4094.8718,4081.5385
4123.0769,4084.1026,4129.2308,4014.359,4154.359,4142.0513,4135.8974,4135.8974,4161.0256,4113.3333,4123.0769,4108.2051
4137.4359,4086.1538,4129.7436,4029.2308,4145.641,4132.3077,4139.4872,4138.4615,4175.3846,4121.5385,4151.7949,4130.2564
4132.8205,4077.4359,4126.1538,4025.1282,4154.359,4135.3846,4136.9231,4140,4168.2051,4117.4359,4147.6923,4124.1026
4126.1538,4077.4359,4130.7692,4026.1538,4154.359,4137.9487,4129.7436,4138.9744,4160,4116.4103,4139.4872,4113.8462
4134.8718,4086.6667,4143.0769,4043.0769,4148.7179,4137.9487,4130.2564,4150.2564,4170.7692,4129.2308,4145.1282,4123.0769
4146.6667,4094.359,4150.2564,4056.4103,4149.2308,4140.5128,4140,4159.4872,4176.9231,4136.9231,4152.3077,4134.8718
4148.2051,4101.5385,4153.8462,4064.6154,4147.1795,4142.5641,4143.0769,4152.3077,4176.4103,4136.4103,4157.9487,4140
4133.3333,4094.359,4151.7949,4072.8205,4135.3846,4138.9744,4136.4103,4144.6154,4171.7949,4130.7692,4142.5641,4134.8718
4129.7436,4082.5641,4140.5128,4074.359,4136.4103,4137.9487,4137.4359,4154.359,4159.4872,4123.0769,4126.1538,4128.7179
4129.7436,4086.1538,4126.6667,4061.0256,4151.7949,4138.9744,4141.5385,4158.9744,4145.641,4114.359,4126.1538,4117.9487
4112.3077,4089.2308,4114.8718,4050.7692,4147.6923,4133.3333,4136.4103,4145.1282,4135.3846,4107.6923,4120.5128,4097.4359
4113.8462,4086.1538,4111.7949,4067.1795,4136.9231,4134.359,4139.4872,4142.5641,4138.9744,4113.3333,4122.5641,4096.4103
4129.2308,4083.0769,4114.8718,4082.5641,4146.1538,4142.5641,4153.3333,4150.2564,4144.1026,4121.5385,4125.1282,4102.5641
4112.3077,4081.5385,4117.9487,4076.4103,4156.4103,4148.7179,4154.359,4149.7436,4141.0256,4117.4359,4117.4359,4092.3077
4095.3846,4087.1795,4117.9487,4075.3846,4159.4872,4154.359,4147.6923,4153.8462,4138.4615,4112.3077,4111.2821,4089.7436
4113.8462,4091.7949,4117.9487,4084.1026,4149.7436,4151.7949,4149.7436,4163.0769,4137.9487,4115.8974,4108.7179,4099.4872
4132.3077,4096.4103,4124.6154,4082.0513,4143.5897,4147.6923,4153.8462,4171.7949,4136.4103,4124.1026,4116.4103,4109.2308
4120.5128,4104.1026,4126.6667,4071.2821,4161.0256,4148.7179,4148.2051,4170.7692,4132.3077,4124.6154,4125.641,4109.2308
4109.7436,4108.7179,4121.0256,4068.2051,4173.3333,4147.1795,4141.0256,4161.0256,4134.359,4120,4123.5897,4103.5897
4128.2051,4117.9487,4123.0769,4075.8974,4160.5128,4146.1538,4146.1538,4161.5385,4144.1026,4123.0769,4124.6154,4107.1795
4135.3846,4120,4126.6667,4080.5128,4153.3333,4145.1282,4149.7436,4162.5641,4141.5385,4126.1538,4123.0769,4107.6923
4127.6923,4115.3846,4125.641,4079.4872,4163.5897,4141.0256,4143.5897,4160.5128,4136.9231,4126.1538,4119.4872,4108.7179
4126.1538,4115.8974,4124.6154,4084.1026,4150.7692,4140,4140,4159.4872,4140.5128,4123.5897,4122.0513,4114.359
4115.3846,4104.6154,4120,4089.2308,4133.3333,4140.5128,4142.0513,4151.2821,4133.8462,4115.8974,4105.641,4104.1026
4118.4615,4100,4116.4103,4085.641,4151.2821,4140,4141.0256,4152.3077,4131.2821,4115.8974,4088.2051,4094.359
4142.5641,4120.5128,4122.5641,4084.6154,4164.1026,4134.359,4138.9744,4157.4359,4137.4359,4122.0513,4107.1795,4109.7436
4148.2051,4135.3846,4127.6923,4089.7436,4153.3333,4130.7692,4140.5128,4154.8718,4141.5385,4128.2051,4131.2821,4128.7179
4136.9231,4127.1795,4127.6923,4091.7949,4146.6667,4132.3077,4140,4151.2821,4147.6923,4131.7949,4128.7179,4128.2051
4131.7949,4117.9487,4128.7179,4093.3333,4145.641,4131.2821,4140.5128,4151.2821,4146.1538,4134.359,4118.9744,4122.0513
4127.6923,4120.5128,4129.2308,4096.9231,4146.1538,4137.4359,4140,4158.9744,4140.5128,4136.9231,4122.0513,4124.1026
4121.5385,4118.9744,4124.1026,4100.5128,4145.1282,4143.0769,4140,4163.0769,4142.5641,4135.8974,4123.5897,4116.9231
4123.5897,4118.9744,4123.0769,4106.6667,4137.4359,4138.9744,4141.0256,4158.9744,4147.1795,4134.359,4120,4110.7692
4125.1282,4116.9231,4124.6154,4107.6923,4128.7179,4137.4359,4138.4615,4152.8205,4142.5641,4132.8205,4113.3333,4117.9487
4117.9487,4101.5385,4122.0513,4109.2308,4124.6154,4139.4872,4136.9231,4154.359,4134.8718,4127.6923,4106.1538,4112.8205
4120.5128,4104.1026,4125.1282,4123.5897,4131.2821,4141.5385,4140.5128,4167.6923,4141.0256,4127.6923,4109.2308,4111.7949
4123.0769,4113.8462,4124.1026,4113.3333,4139.4872,4140,4142.5641,4169.2308,4137.9487,4125.641,4097.9487,4117.4359
4120.5128,4112.3077,4113.3333,4087.6923,4141.0256,4135.3846,4139.4872,4160.5128,4128.2051,4120,4083.0769,4106.6667
4123.0769,4115.8974,4119.4872,4105.1282,4133.3333,4131.2821,4145.641,4163.5897,4137.9487,4127.6923,4098.9744,4105.641
4122.0513,4113.8462,4131.7949,4122.5641,4122.0513,4131.2821,4149.7436,4164.1026,4144.6154,4139.4872,4106.1538,4116.9231
4118.9744,4104.6154,4123.5897,4096.9231,4122.0513,4130.7692,4141.5385,4153.3333,4133.3333,4138.4615,4091.7949,4113.8462
4114.8718,4105.1282,4117.4359,4088.2051,4125.641,4124.1026,4138.4615,4150.2564,4126.6667,4134.8718,4090.7692,4104.1026
4121.0256,4114.8718,4126.1538,4106.1538,4130.7692,4129.2308,4145.1282,4157.4359,4132.3077,4141.0256,4096.4103,4114.8718
4130.7692,4121.0256,4128.2051,4104.1026,4141.5385,4139.4872,4142.5641,4160,4134.359,4145.641,4094.8718,4128.2051
4124.1026,4121.5385,4126.1538,4094.359,4136.9231,4127.1795,4134.8718,4149.7436,4123.5897,4140,4100.5128,4118.9744
4123.5897,4122.0513,4131.2821,4100,4111.7949,4116.9231,4138.4615,4144.6154,4132.8205,4139.4872,4103.0769,4116.4103
4134.359,4111.7949,4134.8718,4098.9744,4113.8462,4124.6154,4140,4152.3077,4143.5897,4138.4615,4078.9744,4118.9744
4131.2821,4106.6667,4131.2821,4092.8205,4141.5385,4127.6923,4135.8974,4152.3077,4132.3077,4135.3846,4066.1538,4107.1795
4123.0769,4123.5897,4131.7949,4101.5385,4146.1538,4124.1026,4135.3846,4143.0769,4133.8462,4139.4872,4088.7179,4098.9744
4125.1282,4129.7436,4130.2564,4102.5641,4135.8974,4125.1282,4136.9231,4135.8974,4139.4872,4137.9487,4104.6154,4098.9744
4126.6667,4118.4615,4123.0769,4092.3077,4147.1795,4133.3333,4138.4615,4138.9744,4132.3077,4134.359,4110.7692,4110.2564
4120,4121.0256,4123.0769,4094.359,4153.8462,4138.9744,4138.4615,4142.5641,4129.7436,4136.9231,4107.1795,4111.2821
4119.4872,4130.2564,4130.7692,4096.9231,4134.8718,4135.3846,4139.4872,4137.9487,4132.3077,4137.9487,4088.2051,4105.1282
4130.7692,4124.1026,4131.2821,4088.2051,4132.3077,4134.359,4140.5128,4135.3846,4133.3333,4135.8974,4108.2051,4123.0769
4128.2051,4107.6923,4122.0513,4081.5385,4136.4103,4134.359,4138.9744,4135.8974,4142.5641,4133.8462,4109.7436,4103.5897
4120.5128,4104.6154,4122.5641,4085.641,4127.6923,4129.7436,4136.4103,4139.4872,4143.0769,4136.9231,4051.2821,4061.5385
4123.5897,4104.6154,4126.6667,4082.5641,4124.6154,4126.6667,4136.4103,4136.9231,4117.4359,4140,4053.8462,4090.2564
4137.4359,4097.4359,4124.6154,4074.8718,4135.8974,4129.2308,4137.4359,4128.7179,4133.8462,4140.5128,4112.8205,4130.2564
4146.1538,4113.3333,4125.641,4083.5897,4138.4615,4128.7179,4136.4103,4130.7692,4166.1538,4137.4359,4127.1795,4114.359
4136.9231,4128.7179,4127.1795,4091.7949,4123.5897,4123.0769,4136.9231,4136.4103,4136.4103,4132.3077,4108.7179,4100
4133.8462,4129.7436,4125.641,4092.8205,4126.1538,4121.5385,4135.3846,4137.4359,4115.8974,4135.3846,4079.4872,4104.6154
4140,4134.359,4125.1282,4089.7436,4132.8205,4116.4103,4128.7179,4133.8462,4140,4133.8462,4041.5385,4095.3846
4156.9231,4135.3846,4130.2564,4079.4872,4116.9231,4098.9744,4121.0256,4122.5641,4137.9487,4129.2308,4069.2308,4112.8205
4194.359,4154.359,4141.5385,4082.0513,4110.7692,4091.2821,4117.4359,4115.3846,4143.0769,4142.0513,4109.7436,4124.6154
4201.5385,4174.8718,4142.0513,4090.2564,4113.3333,4092.3077,4110.2564,4111.2821,4171.7949,4149.7436,4055.8974,4105.1282
4177.9487,4174.8718,4135.8974,4086.6667,4109.2308,4088.2051,4103.0769,4109.7436,4158.9744,4133.8462,4042.0513,4143.0769
4188.2051,4182.0513,4140,4092.3077,4115.8974,4088.2051,4107.1795,4112.8205,4149.2308,4122.5641,4116.4103,4191.2821
4198.4615,4194.359,4139.4872,4103.5897,4120,4089.7436,4102.0513,4107.6923,4169.7436,4125.641,4114.359,4173.3333
4167.1795,4180,4128.7179,4099.4872,4116.4103,4088.7179,4105.641,4106.6667,4171.2821,4128.7179,4074.359,4165.1282
4166.1538,4148.7179,4129.2308,4101.0256,4122.5641,4085.1282,4140.5128,4115.8974,4168.7179,4128.7179,4124.6154,4181.0256
4215.3846,4128.7179,4135.8974,4118.4615,4135.3846,4084.6154,4168.2051,4123.5897,4187.6923,4132.3077,4210.2564,4160
4238.4615,4113.8462,4134.8718,4123.0769,4135.3846,4087.1795,4166.6667,4131.2821,4197.9487,4134.359,4244.6154,4127.6923
4204.6154,4088.7179,4126.6667,4107.1795,4133.3333,4086.1538,4166.1538,4137.4359,4204.1026,4137.9487,4227.1795,4077.9487
4179.4872,4057.4359,4118.9744,4098.4615,4146.1538,4086.6667,4173.3333,4137.9487,4244.1026,4148.2051,4233.3333,4024.1026
4198.4615,4038.4615,4114.8718,4108.2051,4152.8205,4083.0769,4169.2308,4126.6667,4246.1538,4141.5385,4301.5385,4041.0256
4201.5385,4035.3846,4106.1538,4114.359,4148.2051,4074.359,4160.5128,4116.9231,4190.2564,4123.0769,4349.2308,4048.2051
4163.5897,4010.2564,4090.2564,4102.5641,4143.0769,4069.2308,4155.3846,4116.4103,4180,4117.9487,4329.2308,3982.5641
4133.3333,3967.6923,4075.3846,4092.3077,4137.4359,4066.6667,4150.7692,4107.1795,4201.5385,4112.3077,4326.1538,3932.3077
4134.8718,3954.359,4070.2564,4100.5128,4137.4359,4065.641,4154.8718,4098.9744,4190.2564,4100.5128,4375.8974,3926.6667
4127.6923,3940.5128,4060.5128,4103.5897,4129.7436,4056.4103,4153.3333,4093.8462,4165.641,4090.2564,4386.6667,3900.5128
4107.6923,3910.7692,4045.1282,4092.3077,4115.8974,4046.6667,4141.0256,4087.1795,4181.5385,4086.1538,4362.5641,3865.641
4127.1795,3916.4103,4050.2564,4091.7949,4129.7436,4056.4103,4142.5641,4096.4103,4214.359,4095.3846,4386.6667,3875.3846
4149.7436,3937.9487,4051.2821,4092.3077,4138.9744,4062.0513,4149.7436,4097.4359,4200.5128,4092.8205,4437.4359,3888.2051
4142.5641,3953.8462,4044.6154,4090.7692,4133.3333,4062.5641,4152.8205,4097.9487,4186.1538,4084.6154,4483.5897,3898.9744
4169.7436,4001.0256,4076.9231,4117.4359,4164.1026,4094.8718,4182.0513,4132.3077,4241.0256,4111.7949,4543.5897,3946.6667
4223.0769,4058.9744,4128.2051,4155.8974,4204.1026,4132.8205,4220,4171.7949,4292.8205,4145.641,4595.3846,3984.6154
4221.5385,4074.359,4132.8205,4157.4359,4204.6154,4133.8462,4216.4103,4180.5128,4283.5897,4143.5897,4618.9744,3975.3846
4194.8718,4061.5385,4113.8462,4140.5128,4191.7949,4122.0513,4197.4359,4177.9487,4266.1538,4130.7692,4627.6923,3967.6923
4216.9231,4073.8462,4117.9487,4152.8205,4206.6667,4134.8718,4203.0769,4178.9744,4270.7692,4137.4359,4648.7179,3988.2051
4226.6667,4090.2564,4125.641,4165.1282,4223.0769,4154.359,4204.6154,4180,4277.9487,4141.5385,4661.0256,3980
4196.9231,4080,4122.5641,4152.8205,4228.7179,4165.1282,4196.4103,4189.7436,4283.0769,4137.9487,4655.3846,3959.4872
4210.7692,4086.1538,4129.2308,4159.4872,4230.2564,4178.4615,4202.0513,4203.0769,4289.2308,4142.5641,4674.359,3999.4872
4249.7436,4114.359,4145.1282,4178.4615,4230.7692,4190.7692,4212.8205,4204.6154,4296.9231,4150.2564,4704.6154,4040
4250.7692,4133.3333,4157.9487,4180,4243.0769,4198.9744,4220,4217.4359,4307.1795,4160,4722.0513,4024.6154
4243.0769,4146.6667,4162.5641,4182.5641,4256.9231,4201.5385,4228.2051,4236.9231,4308.2051,4163.0769,4716.4103,4009.7436
4257.9487,4155.3846,4165.641,4196.4103,4255.8974,4197.4359,4232.8205,4234.8718,4304.6154,4162.0513,4710.7692,4031.7949
4263.5897,4156.4103,4168.7179,4199.4872,4251.2821,4198.9744,4227.6923,4224.6154,4302.0513,4168.7179,4733.3333,4053.3333
4236.4103,4151.2821,4164.1026,4189.7436,4250.2564,4196.4103,4215.8974,4215.3846,4282.0513,4163.5897,4752.8205,4046.1538
4225.1282,4154.8718,4160,4196.9231,4251.7949,4191.2821,4213.8462,4208.7179,4281.0256,4157.4359,4750.2564,4049.2308
4253.8462,4171.7949,4176.9231,4212.3077,4258.9744,4198.9744,4226.6667,4215.3846,4317.4359,4173.3333,4754.359,4070.2564
4271.2821,4182.0513,4195.8974,4213.3333,4265.1282,4208.7179,4228.7179,4215.8974,4323.5897,4184.6154,4780,4071.7949
4262.5641,4185.1282,4196.9231,4213.3333,4266.6667,4208.7179,4217.9487,4204.1026,4293.8462,4176.4103,4799.4872,4077.9487
4255.8974,4183.0769,4191.2821,4214.8718,4262.5641,4202.0513,4209.7436,4190.7692,4282.5641,4169.2308,4790.2564,4086.1538
4261.0256,4176.9231,4192.3077,4210.2564,4253.8462,4203.0769,4208.7179,4183.5897,4311.2821,4174.8718,4775.3846,4078.9744
4269.2308,4176.4103,4198.9744,4210.2564,4248.7179,4211.7949,4206.1538,4185.1282,4330.2564,4179.4872,4780,4086.6667
4269.2308,4183.0769,4206.1538,4217.4359,4249.7436,4211.2821,4201.0256,4184.1026,4310.2564,4174.8718,4790.7692,4098.9744
4275.8974,4193.8462,4219.4872,4227.6923,4260,4209.2308,4201.5385,4185.641,4301.0256,4180,4790.7692,4108.2051
4287.6923,4195.3846,4228.2051,4231.2821,4268.2051,4212.3077,4204.6154,4187.6923,4313.8462,4189.2308,4787.6923,4127.1795
4288.7179,4195.3846,4224.6154,4229.7436,4267.1795,4216.4103,4205.1282,4180.5128,4316.4103,4187.1795,4784.6154,4141.0256
4282.5641,4203.0769,4217.9487,4232.8205,4271.7949,4218.9744,4208.7179,4171.7949,4309.2308,4177.9487,4774.359,4129.7436
4274.359,4198.9744,4212.3077,4237.4359,4272.3077,4216.9231,4210.7692,4169.7436,4301.5385,4172.8205,4764.6154,4112.8205
4276.4103,4192.8205,4216.9231,4237.4359,4267.6923,4217.4359,4208.2051,4175.3846,4297.9487,4177.9487,4771.2821,4123.0769
4274.8718,4190.7692,4220.5128,4233.8462,4260,4220.5128,4203.5897,4176.4103,4305.641,4177.9487,4770.7692,4127.6923
4273.8462,4185.1282,4221.0256,4234.359,4248.2051,4214.8718,4203.0769,4171.2821,4314.359,4173.8462,4758.9744,4127.1795
4287.1795,4189.7436,4224.1026,4243.5897,4245.641,4207.6923,4200.5128,4168.7179,4315.8974,4177.4359,4761.0256,4141.5385
4287.1795,4197.9487,4227.1795,4251.2821,4255.8974,4212.8205,4196.4103,4167.1795,4317.9487,4183.5897,4754.8718,4137.9487
4288.7179,4206.6667,4238.9744,4265.641,4271.2821,4227.1795,4200,4177.4359,4329.2308,4191.2821,4751.2821,4142.0513
4304.6154,4216.9231,4256.4103,4290.2564,4277.4359,4236.4103,4211.7949,4191.2821,4331.2821,4194.359,4779.4872,4172.8205
4307.1795,4220,4260,4300.5128,4282.5641,4240.5128,4219.4872,4192.3077,4313.3333,4192.3077,4785.641,4180
4299.4872,4221.5385,4252.3077,4300,4281.5385,4247.6923,4216.9231,4196.4103,4314.8718,4196.9231,4754.359,4170.2564
4295.8974,4221.0256,4251.2821,4303.5897,4266.6667,4250.2564,4217.4359,4201.5385,4333.8462,4200.5128,4743.0769,4176.9231
4294.8718,4215.8974,4252.8205,4306.6667,4268.2051,4248.2051,4218.4615,4190.7692,4331.7949,4194.359,4758.4615,4181.0256
4286.6667,4211.2821,4248.2051,4302.5641,4277.9487,4243.5897,4205.641,4177.9487,4303.0769,4185.1282,4740,4163.0769
4281.5385,4205.641,4248.2051,4299.4872,4266.6667,4238.4615,4196.9231,4180.5128,4294.8718,4184.1026,4700.5128,4147.1795
4294.359,4203.0769,4259.4872,4309.2308,4257.9487,4235.8974,4200.5128,4193.3333,4325.1282,4193.3333,4701.0256,4158.4615
4295.8974,4202.0513,4257.9487,4315.3846,4259.4872,4227.1795,4197.4359,4188.7179,4325.641,4188.2051,4695.3846,4162.5641
4286.1538,4210.7692,4246.1538,4310.7692,4255.3846,4220.5128,4193.8462,4176.9231,4301.5385,4176.9231,4663.0769,4155.3846
4294.359,4230.7692,4255.8974,4311.2821,4264.6154,4231.2821,4205.641,4186.6667,4308.2051,4183.0769,4670.2564,4173.8462
4308.7179,4234.359,4270.7692,4317.9487,4273.8462,4241.0256,4213.8462,4202.0513,4319.4872,4192.8205,4694.359,4197.4359
4311.2821,4228.7179,4268.7179,4321.5385,4266.6667,4241.0256,4211.2821,4211.2821,4313.8462,4196.4103,4680.5128,4196.4103
4307.1795,4233.8462,4264.6154,4326.1538,4268.2051,4240.5128,4212.3077,4213.8462,4312.3077,4196.4103,4658.9744,4183.5897
4306.1538,4238.4615,4268.7179,4333.8462,4278.4615,4243.0769,4216.9231,4218.9744,4316.4103,4199.4872,4666.6667,4191.7949
4312.3077,4235.3846,4270.2564,4332.3077,4272.3077,4241.0256,4217.4359,4221.0256,4312.3077,4201.5385,4663.0769,4201.0256
4305.1282,4236.4103,4262.0513,4326.6667,4261.5385,4233.3333,4211.2821,4207.1795,4301.5385,4189.7436,4624.6154,4178.9744
4283.5897,4241.0256,4251.2821,4327.1795,4266.1538,4231.2821,4204.1026,4200.5128,4294.359,4178.9744,4612.8205,4166.1538
4279.4872,4229.7436,4246.6667,4329.2308,4263.0769,4232.8205,4199.4872,4210.7692,4288.7179,4181.5385,4630.7692,4186.6667
4288.2051,4222.5641,4251.7949,4334.359,4255.3846,4230.7692,4196.4103,4218.9744,4275.8974,4185.641,4623.5897,4202.5641
4281.5385,4232.8205,4252.3077,4336.4103,4257.9487,4224.6154,4195.8974,4218.4615,4267.6923,4177.4359,4602.0513,4192.3077
4272.3077,4229.7436,4245.1282,4324.1026,4252.8205,4223.5897,4198.4615,4218.4615,4274.359,4174.359,4586.1538,4173.8462
4276.9231,4224.6154,4245.641,4318.9744,4247.1795,4233.3333,4201.0256,4230.2564,4288.7179,4185.1282,4572.8205,4178.9744
4271.7949,4231.2821,4247.6923,4331.7949,4252.3077,4235.8974,4200.5128,4233.3333,4282.5641,4184.1026,4566.6667,4194.8718
4257.9487,4237.4359,4240,4331.2821,4245.1282,4224.1026,4196.4103,4221.5385,4259.4872,4174.359,4564.6154,4188.2051
4267.6923,4239.4872,4234.8718,4318.9744,4234.8718,4216.4103,4189.2308,4215.3846,4254.8718,4178.9744,4543.0769,4170.2564
4289.2308,4242.5641,4242.5641,4318.4615,4238.4615,4217.4359,4184.6154,4212.8205,4267.1795,4187.1795,4525.641,4177.4359
4292.3077,4257.4359,4252.3077,4326.1538,4249.2308,4222.5641,4188.2051,4216.4103,4279.4872,4187.6923,4532.8205,4196.9231
4275.8974,4267.1795,4250.2564,4317.9487,4252.8205,4222.5641,4193.8462,4224.6154,4278.4615,4182.5641,4517.9487,4186.1538
4265.641,4258.4615,4240.5128,4302.0513,4250.2564,4215.8974,4195.8974,4221.5385,4267.1795,4180.5128,4495.3846,4174.8718
4292.8205,4259.4872,4249.2308,4305.1282,4248.2051,4215.8974,4196.9231,4220.5128,4275.8974,4189.7436,4513.3333,4206.1538
4316.4103,4280,4266.1538,4321.5385,4246.6667,4224.6154,4198.4615,4227.6923,4284.1026,4200.5128,4521.0256,4228.2051
4292.3077,4293.3333,4262.0513,4325.641,4252.3077,4228.7179,4199.4872,4232.3077,4269.7436,4198.4615,4501.5385,4210.2564
4271.2821,4281.0256,4253.8462,4311.7949,4257.9487,4225.1282,4199.4872,4230.2564,4264.1026,4190.2564,4491.7949,4199.4872
4291.2821,4272.8205,4261.0256,4307.6923,4250.7692,4223.0769,4200.5128,4228.2051,4284.6154,4193.8462,4485.1282,4218.4615
4303.5897,4279.4872,4263.0769,4318.9744,4240.5128,4224.1026,4197.9487,4231.7949,4292.3077,4203.0769,4477.4359,4232.8205
4276.9231,4267.1795,4249.7436,4317.9487,4236.4103,4214.359,4187.6923,4225.1282,4262.0513,4190.2564,4467.6923,4213.8462
4268.7179,4247.6923,4240.5128,4304.1026,4236.9231,4205.641,4184.1026,4214.359,4255.8974,4179.4872,4444.1026,4196.4103
4281.5385,4244.6154,4239.4872,4298.9744,4234.8718,4205.1282,4187.1795,4212.3077,4270.7692,4184.6154,4426.1538,4206.1538
4271.2821,4245.641,4235.8974,4303.5897,4233.3333,4198.4615,4186.6667,4212.3077,4249.7436,4182.5641,4431.2821,4209.7436
4264.1026,4250.7692,4236.9231,4302.5641,4233.8462,4194.359,4186.6667,4219.4872,4237.4359,4184.1026,4451.2821,4204.6154
4273.8462,4252.8205,4242.0513,4294.359,4224.6154,4197.9487,4186.1538,4225.1282,4252.8205,4192.8205,4452.3077,4207.1795
4273.8462,4253.3333,4241.0256,4293.3333,4223.0769,4200,4184.1026,4220.5128,4253.3333,4194.359,4438.9744,4214.359
4256.4103,4263.0769,4233.8462,4297.9487,4234.8718,4196.9231,4182.0513,4214.359,4247.6923,4190.7692,4428.7179,4202.5641
4246.6667,4266.1538,4230.2564,4294.8718,4227.6923,4193.3333,4178.4615,4211.2821,4253.3333,4189.2308,4413.3333,4187.6923
4255.3846,4264.1026,4234.359,4299.4872,4215.3846,4190.7692,4178.9744,4212.8205,4252.3077,4186.1538,4406.1538,4194.359
4255.3846,4266.6667,4231.7949,4305.641,4216.4103,4184.1026,4178.9744,4212.3077,4244.6154,4179.4872,4404.6154,4191.2821
4249.7436,4267.6923,4225.641,4296.4103,4217.4359,4185.641,4175.3846,4212.8205,4245.641,4183.5897,4406.1538,4191.7949
4246.6667,4265.641,4227.1795,4290.2564,4215.3846,4194.359,4176.4103,4212.8205,4241.5385,4191.2821,4412.8205,4207.6923
4234.8718,4261.0256,4225.1282,4290.7692,4216.4103,4191.7949,4173.8462,4203.5897,4230.7692,4186.6667,4393.8462,4202.5641
4227.1795,4261.5385,4217.9487,4288.7179,4214.359,4182.5641,4162.5641,4196.9231,4227.6923,4183.0769,4370.7692,4190.2564
4226.6667,4266.6667,4215.8974,4288.7179,4206.6667,4177.4359,4158.9744,4200,4218.4615,4182.5641,4369.7436,4189.2308
4227.6923,4266.1538,4214.359,4286.6667,4208.7179,4179.4872,4165.1282,4203.5897,4211.7949,4181.0256,4363.5897,4185.641
4229.7436,4264.1026,4212.3077,4279.4872,4210.2564,4186.6667,4164.1026,4201.5385,4224.1026,4184.1026,4353.3333,4181.5385
4225.1282,4261.0256,4208.2051,4276.9231,4204.1026,4184.6154,4157.4359,4196.9231,4223.5897,4185.1282,4355.8974,4182.5641
4222.0513,4265.641,4204.6154,4277.4359,4208.7179,4181.0256,4155.3846,4197.9487,4214.8718,4181.0256,4352.8205,4181.0256
4224.6154,4266.1538,4202.5641,4272.8205,4208.7179,4181.5385,4151.2821,4197.9487,4214.8718,4176.9231,4344.1026,4183.5897
4221.5385,4260,4205.1282,4271.2821,4201.5385,4183.5897,4151.2821,4192.3077,4209.2308,4180,4347.1795,4187.1795
4217.9487,4258.4615,4205.1282,4274.359,4210.2564,4184.1026,4152.3077,4193.8462,4206.1538,4181.0256,4345.641,4189.7436
4218.4615,4252.3077,4196.9231,4273.3333,4214.8718,4180,4144.6154,4196.4103,4208.2051,4173.3333,4326.1538,4183.0769
4226.6667,4256.4103,4199.4872,4286.1538,4209.7436,4182.5641,4142.5641,4196.4103,4213.8462,4177.4359,4326.1538,4177.4359
4232.3077,4269.2308,4213.3333,4300,4209.7436,4193.3333,4149.7436,4202.0513,4214.359,4186.1538,4339.4872,4184.6154
4223.5897,4273.8462,4214.8718,4292.3077,4211.7949,4199.4872,4156.4103,4208.7179,4207.6923,4182.5641,4333.8462,4193.3333
4215.3846,4272.3077,4204.6154,4282.5641,4213.3333,4196.9231,4157.4359,4212.3077,4207.1795,4177.4359,4318.4615,4196.9231
4211.7949,4262.5641,4198.4615,4273.8462,4210.7692,4187.1795,4155.3846,4205.641,4205.1282,4175.3846,4307.6923,4193.8462
4211.2821,4254.8718,4197.4359,4260,4202.0513,4183.5897,4151.2821,4196.4103,4199.4872,4174.8718,4308.7179,4193.8462
4211.7949,4258.4615,4197.4359,4250.2564,4194.359,4192.3077,4151.7949,4196.4103,4198.4615,4172.8205,4308.7179,4198.4615
4207.1795,4258.4615,4201.0256,4248.2051,4201.0256,4189.7436,4153.3333,4200,4200,4171.7949,4299.4872,4194.359
4201.5385,4254.359,4200,4240,4204.1026,4166.1538,4143.5897,4196.4103,4189.2308,4169.7436,4283.5897,4178.4615
4209.7436,4261.0256,4204.6154,4241.5385,4199.4872,4162.5641,4148.2051,4194.359,4176.4103,4171.2821,4273.3333,4182.5641
4236.4103,4289.2308,4228.7179,4266.1538,4215.8974,4196.4103,4173.8462,4219.4872,4198.4615,4187.1795,4290.7692,4220.5128
4249.7436,4307.6923,4242.5641,4272.8205,4237.4359,4217.4359,4181.5385,4242.5641,4223.0769,4197.9487,4313.3333,4238.4615
4239.4872,4293.3333,4231.2821,4251.2821,4230.2564,4202.5641,4172.8205,4232.8205,4212.8205,4195.3846,4304.1026,4229.2308
4239.4872,4286.1538,4231.7949,4251.2821,4213.3333,4193.3333,4172.3077,4228.7179,4201.5385,4194.359,4291.7949,4235.8974
4242.0513,4292.8205,4240.5128,4263.5897,4206.1538,4194.8718,4173.3333,4233.8462,4202.5641,4192.8205,4295.3846,4237.4359
4231.2821,4288.7179,4231.2821,4251.2821,4208.2051,4193.3333,4170.7692,4231.2821,4201.0256,4192.3077,4294.8718,4228.7179
4222.5641,4282.0513,4222.0513,4237.9487,4216.4103,4190.2564,4170.7692,4235.3846,4197.9487,4188.7179,4283.5897,4228.7179
4226.6667,4275.8974,4224.6154,4242.0513,4207.6923,4188.2051,4170.2564,4237.9487,4201.0256,4183.0769,4274.8718,4224.6154
4229.2308,4272.3077,4222.5641,4243.0769,4200,4191.7949,4168.7179,4233.3333,4200,4183.0769,4275.3846,4218.9744
4208.7179,4268.2051,4213.8462,4232.3077,4208.2051,4193.3333,4163.0769,4228.2051,4183.5897,4175.8974,4264.1026,4207.1795
4194.8718,4263.5897,4211.2821,4219.4872,4207.6923,4186.6667,4155.8974,4227.6923,4176.9231,4170.7692,4260.5128,4202.0513
4210.7692,4264.6154,4218.9744,4219.4872,4204.6154,4180,4155.3846,4233.8462,4192.8205,4179.4872,4271.7949,4217.9487
4213.3333,4269.2308,4222.0513,4222.0513,4203.0769,4171.2821,4156.4103,4232.3077,4197.9487,4181.0256,4268.2051,4227.1795
4201.0256,4263.5897,4220,4214.359,4197.4359,4166.6667,4155.3846,4224.1026,4188.2051,4178.9744,4263.0769,4227.6923
4202.0513,4249.7436,4215.8974,4205.1282,4193.3333,4168.7179,4155.3846,4218.9744,4184.6154,4178.4615,4257.4359,4223.0769
4207.1795,4257.4359,4206.1538,4211.2821,4195.3846,4169.2308,4155.3846,4219.4872,4180.5128,4170.2564,4244.6154,4210.2564
4211.2821,4268.7179,4207.1795,4218.9744,4194.359,4168.2051,4154.359,4222.5641,4177.9487,4168.7179,4243.0769,4212.3077
4208.2051,4257.4359,4209.7436,4211.2821,4184.6154,4167.1795,4153.3333,4217.9487,4172.8205,4174.359,4240,4223.5897
4195.8974,4249.7436,4199.4872,4207.1795,4180,4166.6667,4147.6923,4211.2821,4169.2308,4170.2564,4226.6667,4215.3846
4185.1282,4246.1538,4189.2308,4207.1795,4174.8718,4162.5641,4141.0256,4203.0769,4158.4615,4161.0256,4218.4615,4197.9487
4178.9744,4240,4183.0769,4195.8974,4168.7179,4158.9744,4137.9487,4192.8205,4139.4872,4158.4615,4212.3077,4194.359
4174.359,4243.5897,4179.4872,4190.7692,4161.5385,4163.0769,4138.4615,4188.7179,4136.9231,4160,4204.6154,4200.5128
4174.8718,4240,4184.1026,4196.4103,4155.8974,4165.1282,4136.9231,4188.7179,4142.0513,4160,4200.5128,4197.4359
4184.6154,4227.6923,4190.7692,4197.9487,4168.2051,4162.0513,4133.8462,4192.8205,4138.9744,4159.4872,4193.8462,4194.8718
4177.4359,4230.2564,4183.5897,4191.7949,4171.2821,4157.9487,4131.7949,4189.2308,4136.4103,4157.4359,4177.9487,4192.8205
4158.9744,4237.9487,4180,4184.1026,4151.2821,4158.4615,4131.7949,4183.0769,4139.4872,4153.8462,4166.1538,4184.6154
4171.2821,4231.2821,4191.7949,4182.5641,4150.7692,4166.1538,4133.8462,4187.1795,4142.5641,4154.359,4181.0256,4195.3846
4189.2308,4225.641,4197.4359,4186.1538,4168.2051,4166.6667,4135.8974,4183.5897,4137.9487,4151.7949,4193.8462,4207.6923
4177.9487,4230.2564,4186.1538,4182.0513,4167.6923,4162.5641,4137.9487,4170.7692,4135.8974,4145.641,4175.8974,4187.6923
4165.641,4229.2308,4178.4615,4169.7436,4155.8974,4165.641,4137.4359,4161.5385,4135.3846,4139.4872,4153.8462,4168.2051
4175.8974,4220.5128,4185.1282,4161.5385,4153.8462,4169.2308,4131.2821,4152.8205,4130.2564,4137.4359,4153.8462,4184.6154
4179.4872,4218.9744,4185.1282,4160,4152.3077,4164.6154,4123.0769,4149.2308,4127.6923,4133.3333,4156.4103,4193.3333
4165.641,4211.2821,4177.9487,4158.9744,4144.1026,4161.0256,4121.0256,4152.3077,4130.2564,4126.1538,4148.7179,4172.3077
4172.3077,4200,4182.5641,4160.5128,4144.6154,4168.2051,4124.6154,4150.7692,4131.2821,4129.7436,4158.4615,4174.8718
4187.6923,4203.0769,4187.6923,4161.5385,4147.6923,4168.2051,4121.5385,4137.4359,4124.1026,4135.3846,4173.8462,4197.9487
4178.9744,4208.2051,4182.5641,4164.1026,4141.0256,4158.9744,4116.9231,4129.7436,4124.6154,4131.2821,4163.0769,4191.2821
4172.3077,4211.2821,4185.1282,4176.4103,4141.5385,4158.9744,4120.5128,4139.4872,4133.3333,4134.359,4154.359,4174.8718
4181.0256,4202.5641,4189.7436,4183.5897,4139.4872,4161.5385,4123.5897,4139.4872,4127.1795,4134.8718,4161.0256,4179.4872
4181.5385,4193.3333,4186.6667,4186.1538,4132.8205,4160.5128,4123.5897,4130.7692,4121.5385,4130.2564,4162.5641,4190.7692
4166.6667,4191.2821,4181.5385,4190.7692,4136.9231,4159.4872,4125.1282,4135.3846,4119.4872,4128.7179,4154.8718,4188.7179
4165.1282,4180,4180.5128,4186.6667,4137.4359,4158.9744,4123.5897,4143.5897,4116.9231,4126.1538,4154.359,4182.0513
4177.4359,4177.4359,4184.1026,4187.6923,4129.7436,4161.5385,4121.5385,4143.0769,4131.2821,4128.7179,4169.2308,4193.3333
4176.4103,4190.7692,4189.2308,4198.4615,4135.8974,4164.1026,4124.1026,4138.9744,4142.0513,4133.3333,4176.9231,4209.7436
4178.4615,4192.8205,4190.2564,4196.9231,4145.1282,4158.4615,4128.2051,4136.4103,4134.359,4131.2821,4167.6923,4215.3846
4186.1538,4181.0256,4187.1795,4183.5897,4136.9231,4148.7179,4121.5385,4127.1795,4127.6923,4127.1795,4148.7179,4208.2051
4169.7436,4182.0513,4183.0769,4178.4615,4131.2821,4147.1795,4111.2821,4116.4103,4122.0513,4122.5641,4133.8462,4194.359
4163.5897,4187.6923,4187.1795,4180,4136.9231,4151.2821,4111.2821,4123.0769,4116.4103,4122.0513,4149.2308,4204.1026
4175.8974,4173.3333,4189.2308,4170.7692,4130.2564,4142.0513,4112.3077,4120.5128,4111.2821,4118.4615,4159.4872,4210.2564
4167.6923,4165.1282,4178.4615,4161.0256,4120.5128,4134.359,4109.2308,4108.7179,4102.5641,4110.7692,4141.0256,4186.6667
4155.8974,4169.2308,4177.4359,4162.5641,4120.5128,4143.0769,4115.8974,4120,4108.2051,4114.359,4130.7692,4184.1026
4162.0513,4162.5641,4180,4160.5128,4118.4615,4145.641,4123.5897,4133.8462,4109.2308,4122.0513,4128.2051,4200
4163.0769,4154.8718,4170.2564,4150.7692,4116.9231,4141.5385,4118.9744,4125.641,4098.9744,4120.5128,4118.9744,4198.4615
4157.4359,4154.359,4163.5897,4150.2564,4118.4615,4141.0256,4115.3846,4114.359,4102.0513,4113.8462,4120,4192.8205
4155.8974,4152.3077,4166.1538,4157.9487,4116.4103,4135.3846,4115.3846,4113.8462,4110.7692,4113.3333,4123.0769,4192.8205
4152.8205,4150.2564,4170.2564,4160.5128,4109.2308,4127.1795,4112.3077,4117.9487,4102.5641,4119.4872,4115.8974,4190.7692
4148.7179,4150.2564,4174.8718,4154.8718,4096.4103,4126.1538,4112.8205,4118.9744,4089.7436,4123.0769,4114.8718,4193.3333
4153.3333,4154.8718,4178.9744,4156.4103,4092.3077,4130.2564,4117.9487,4118.4615,4097.9487,4126.6667,4120.5128,4200
4156.9231,4156.4103,4183.0769,4165.1282,4105.1282,4131.7949,4122.0513,4118.4615,4106.6667,4126.1538,4116.4103,4191.7949
4147.6923,4151.7949,4183.5897,4163.5897,4115.3846,4130.2564,4125.641,4118.4615,4098.4615,4123.0769,4106.6667,4186.1538
4135.3846,4148.7179,4175.3846,4146.1538,4109.2308,4126.6667,4124.1026,4118.4615,4085.641,4116.4103,4102.5641,4188.2051
4130.2564,4144.6154,4169.2308,4130.7692,4101.0256,4125.1282,4120,4119.4872,4081.0256,4109.7436,4109.7436,4182.0513
4142.5641,4143.5897,4178.4615,4137.9487,4109.2308,4125.641,4125.641,4129.7436,4095.8974,4117.4359,4122.5641,4191.7949
4149.2308,4144.6154,4183.5897,4149.2308,4106.1538,4118.9744,4123.5897,4133.3333,4101.0256,4116.4103,4109.2308,4200
4128.7179,4144.1026,4173.3333,4146.1538,4086.6667,4114.8718,4109.2308,4121.5385,4080,4102.5641,4090.7692,4178.9744
4125.641,4154.8718,4177.9487,4150.2564,4096.4103,4128.2051,4110.2564,4120.5128,4072.3077,4106.6667,4107.6923,4172.3077
4149.7436,4162.0513,4195.8974,4161.0256,4115.3846,4132.8205,4121.0256,4130.2564,4083.5897,4118.9744,4110.7692,4188.2051
4161.5385,4154.8718,4197.9487,4160.5128,4112.3077,4120,4112.8205,4127.1795,4083.5897,4124.1026,4087.6923,4193.8462
4144.6154,4147.1795,4182.0513,4152.8205,4100.5128,4111.2821,4098.4615,4104.1026,4070.2564,4114.359,4075.8974,4181.5385
4125.641,4143.5897,4170.2564,4149.7436,4097.9487,4112.8205,4103.0769,4093.8462,4063.5897,4101.5385,4074.359,4160.5128
4125.1282,4143.5897,4172.3077,4147.1795,4104.1026,4116.9231,4111.7949,4105.1282,4067.1795,4103.0769,4081.0256,4158.9744
4130.7692,4140,4170.7692,4139.4872,4101.0256,4115.3846,4107.1795,4104.6154,4064.1026,4105.1282,4092.3077,4179.4872
4131.2821,4138.4615,4164.6154,4134.359,4093.3333,4110.2564,4098.9744,4099.4872,4054.8718,4098.9744,4087.1795,4188.2051
4125.641,4148.7179,4165.641,4135.3846,4093.8462,4108.7179,4099.4872,4108.2051,4051.7949,4098.9744,4071.7949,4183.0769
4130.7692,4168.2051,4172.8205,4138.4615,4104.6154,4113.3333,4108.2051,4115.8974,4062.0513,4110.2564,4081.5385,4185.1282
4146.6667,4181.5385,4181.0256,4142.5641,4114.359,4116.4103,4111.2821,4124.1026,4077.9487,4118.4615,4097.9487,4191.2821
4145.641,4168.7179,4182.5641,4140,4110.7692,4108.7179,4106.1538,4128.7179,4075.8974,4116.4103,4088.7179,4190.2564
4132.3077,4157.9487,4175.3846,4133.3333,4106.6667,4105.1282,4103.5897,4122.5641,4064.6154,4115.8974,4078.4615,4181.5385
4130.7692,4172.8205,4175.3846,4131.7949,4105.1282,4116.4103,4107.1795,4124.1026,4066.6667,4117.4359,4091.2821,4182.0513
4131.2821,4174.8718,4177.9487,4132.8205,4104.1026,4120.5128,4108.7179,4129.2308,4066.1538,4116.4103,4095.8974,4189.7436
4130.2564,4158.4615,4169.2308,4127.6923,4107.1795,4113.3333,4108.2051,4122.0513,4060,4116.4103,4087.6923,4184.6154
4130.7692,4153.8462,4160,4121.0256,4106.1538,4115.8974,4106.6667,4110.7692,4059.4872,4112.8205,4080.5128,4172.3077
4122.0513,4163.0769,4162.0513,4122.0513,4104.1026,4118.4615,4104.1026,4111.7949,4061.5385,4109.2308,4070.2564,4168.2051
4109.2308,4162.0513,4161.0256,4118.4615,4102.5641,4110.2564,4101.5385,4114.8718,4056.4103,4110.7692,4068.7179,4157.4359
4112.8205,4156.9231,4153.3333,4104.6154,4105.1282,4110.7692,4103.0769,4114.8718,4050.2564,4107.6923,4081.0256,4149.7436
4126.6667,4168.7179,4153.8462,4104.6154,4110.7692,4117.4359,4106.1538,4120,4053.3333,4109.2308,4087.1795,4163.5897
4122.0513,4182.0513,4158.9744,4114.8718,4108.7179,4095.8974,4104.1026,4115.8974,4049.7436,4114.359,4080,4165.641
4117.9487,4175.8974,4163.0769,4108.7179,4100.5128,4069.7436,4100.5128,4101.0256,4044.1026,4117.4359,4078.9744,4163.5897
4124.1026,4161.0256,4161.0256,4095.3846,4093.3333,4072.3077,4096.9231,4100,4055.3846,4116.9231,4071.7949,4165.641
4115.8974,4166.6667,4152.8205,4098.9744,4092.8205,4073.8462,4094.359,4110.2564,4060.5128,4115.3846,4047.6923,4149.2308
4116.9231,4185.641,4153.8462,4104.6154,4100.5128,4067.1795,4100.5128,4113.8462,4050.2564,4120,4060,4158.4615
4128.7179,4191.2821,4155.3846,4097.9487,4107.1795,4077.4359,4106.6667,4113.3333,4043.5897,4117.4359,4088.7179,4185.1282
4118.9744,4180.5128,4147.1795,4091.2821,4103.0769,4084.1026,4100.5128,4114.359,4044.1026,4109.2308,4069.7436,4162.0513
4108.7179,4164.6154,4146.6667,4093.8462,4095.8974,4074.359,4096.9231,4117.9487,4045.1282,4111.7949,4047.1795,4138.9744
4113.3333,4158.4615,4153.3333,4095.3846,4096.9231,4074.359,4106.1538,4117.9487,4041.0256,4117.9487,4058.9744,4162.5641
4112.8205,4167.6923,4154.359,4093.3333,4105.1282,4080.5128,4107.6923,4117.9487,4044.6154,4120,4065.641,4172.8205
4110.7692,4166.6667,4151.7949,4098.9744,4107.1795,4074.359,4095.8974,4122.5641,4055.3846,4117.9487,4058.4615,4156.4103
4112.3077,4149.2308,4149.2308,4102.5641,4090.2564,4070.7692,4096.9231,4129.2308,4052.3077,4116.4103,4063.0769,4156.9231
4114.359,4150.2564,4150.2564,4098.9744,4082.0513,4076.9231,4105.641,4129.2308,4044.1026,4117.9487,4077.9487,4168.2051
4111.2821,4149.7436,4149.2308,4089.7436,4092.8205,4073.8462,4098.4615,4121.5385,4033.8462,4112.8205,4070.2564,4160
4100,4129.7436,4143.5897,4081.5385,4097.4359,4066.6667,4087.1795,4122.0513,4025.641,4103.0769,4043.5897,4145.641
4096.9231,4128.7179,4139.4872,4084.1026,4087.1795,4069.2308,4088.7179,4124.6154,4028.7179,4101.5385,4038.4615,4141.5385
4097.9487,4131.2821,4134.359,4083.5897,4082.5641,4071.2821,4095.3846,4116.9231,4027.1795,4104.6154,4052.8205,4137.4359
4091.7949,4118.9744,4127.1795,4080.5128,4092.8205,4070.2564,4095.3846,4117.9487,4015.3846,4101.5385,4046.6667,4133.8462
4087.1795,4116.9231,4124.6154,4091.2821,4091.7949,4069.2308,4091.7949,4125.641,4007.6923,4097.4359,4021.0256,4125.641
4092.3077,4126.1538,4128.2051,4103.5897,4086.1538,4068.7179,4089.2308,4122.0513,4009.2308,4104.1026,4024.1026,4124.1026
4088.7179,4131.2821,4126.6667,4103.0769,4090.7692,4069.2308,4089.2308,4115.8974,4010.7692,4106.1538,4038.9744,4132.3077
4078.9744,4125.641,4122.5641,4095.8974,4081.5385,4067.1795,4089.7436,4114.359,4015.3846,4102.0513,4035.3846,4126.1538
4087.6923,4122.0513,4126.6667,4095.8974,4065.641,4067.6923,4090.7692,4117.4359,4019.4872,4104.6154,4039.4872,4129.7436
4089.7436,4125.641,4126.1538,4101.5385,4073.3333,4070.2564,4090.7692,4124.6154,4012.8205,4105.641,4041.5385,4142.0513
4075.3846,4132.8205,4121.0256,4107.1795,4087.1795,4066.6667,4088.2051,4131.2821,4005.1282,4102.5641,4028.7179,4137.9487
4076.4103,4128.7179,4125.1282,4107.1795,4087.1795,4059.4872,4081.0256,4134.359,4005.641,4102.0513,4030.2564,4138.4615
4084.1026,4111.2821,4123.0769,4102.0513,4078.4615,4056.4103,4074.359,4124.6154,4000.5128,4102.0513,4036.4103,4149.7436
4081.5385,4111.2821,4112.8205,4098.9744,4074.8718,4061.0256,4079.4872,4117.9487,3996.9231,4100,4020.5128,4146.1538
4073.3333,4117.4359,4112.8205,4091.7949,4082.0513,4063.5897,4089.7436,4122.0513,4005.641,4096.4103,4011.7949,4131.7949
4067.6923,4115.3846,4116.9231,4087.6923,4091.2821,4064.1026,4090.2564,4122.0513,4008.2051,4094.359,4027.1795,4131.2821
4070.2564,4116.9231,4111.7949,4088.7179,4087.1795,4066.6667,4088.2051,4117.9487,3997.9487,4097.4359,4038.4615,4142.0513
4076.9231,4114.8718,4104.6154,4083.0769,4074.8718,4064.6154,4090.2564,4116.9231,3993.3333,4097.9487,4028.7179,4148.7179
4078.9744,4115.3846,4103.5897,4086.1538,4077.4359,4063.0769,4091.7949,4121.0256,4004.6154,4101.0256,4014.359,4138.9744
4073.8462,4117.4359,4101.5385,4092.8205,4085.1282,4065.641,4091.2821,4122.5641,4004.6154,4103.5897,4019.4872,4123.0769
4068.2051,4108.2051,4095.3846,4085.1282,4083.0769,4066.1538,4090.7692,4116.9231,3983.5897,4094.8718,4035.8974,4124.6154
4075.8974,4099.4872,4096.4103,4085.641,4080.5128,4068.7179,4095.8974,4116.4103,3984.1026,4093.3333,4033.8462,4142.5641
4086.6667,4106.1538,4104.1026,4104.6154,4087.6923,4075.3846,4102.5641,4127.1795,4005.1282,4107.6923,4017.4359,4146.1538
4085.641,4113.8462,4108.2051,4107.1795,4094.359,4077.4359,4096.9231,4135.8974,4018.9744,4116.9231,4021.5385,4142.0513
4089.7436,4111.2821,4114.359,4090.2564,4088.7179,4074.359,4088.2051,4134.359,4020,4113.8462,4038.4615,4155.8974
4102.5641,4115.3846,4119.4872,4086.6667,4086.1538,4074.8718,4091.7949,4130.2564,4012.8205,4108.7179,4038.9744,4162.5641
4090.7692,4117.9487,4111.7949,4095.3846,4086.1538,4073.8462,4089.2308,4124.6154,4005.1282,4103.0769,4027.6923,4145.1282
4066.6667,4100,4101.0256,4091.7949,4072.3077,4066.1538,4080,4116.4103,4004.6154,4095.3846,4014.359,4133.3333
4068.2051,4087.1795,4098.9744,4077.4359,4065.641,4064.1026,4084.1026,4113.3333,4012.8205,4096.9231,4007.1795,4135.8974
4068.7179,4085.641,4091.7949,4068.2051,4074.359,4069.2308,4091.7949,4113.8462,4010.2564,4097.9487,3996.9231,4126.1538
4058.9744,4076.9231,4084.1026,4067.6923,4070.7692,4072.3077,4091.2821,4114.359,4001.5385,4095.3846,3989.2308,4123.0769
4073.8462,4080.5128,4093.8462,4076.4103,4063.5897,4077.4359,4091.2821,4122.5641,4006.6667,4102.0513,4009.7436,4143.0769
4083.5897,4092.3077,4098.4615,4087.6923,4069.7436,4084.1026,4092.3077,4121.0256,4012.3077,4109.2308,4018.4615,4142.0513
4076.4103,4081.5385,4093.3333,4090.7692,4074.8718,4078.9744,4092.8205,4112.8205,4014.8718,4112.3077,4002.0513,4128.7179
4080,4069.7436,4097.4359,4087.6923,4066.1538,4068.2051,4090.2564,4111.2821,4015.3846,4110.7692,4004.1026,4133.3333
4076.4103,4077.9487,4097.4359,4086.6667,4055.8974,4065.1282,4083.0769,4108.7179,4005.641,4102.5641,4003.5897,4133.3333
4070.2564,4087.6923,4091.7949,4086.1538,4063.5897,4068.7179,4084.1026,4109.7436,4003.5897,4101.0256,3989.7436,4124.1026
4072.8205,4082.0513,4087.6923,4080.5128,4072.3077,4066.1538,4089.2308,4110.2564,4008.2051,4100,3995.8974,4124.1026
4056.4103,4072.8205,4076.4103,4071.7949,4068.2051,4062.5641,4081.0256,4100.5128,3994.8718,4094.8718,4004.6154,4123.5897
4039.4872,4074.359,4070.7692,4068.2051,4067.1795,4066.1538,4073.3333,4093.3333,3985.1282,4093.3333,3990.7692,4116.9231
4058.4615,4079.4872,4084.6154,4069.7436,4069.7436,4072.8205,4081.0256,4098.4615,3998.9744,4098.4615,3978.9744,4124.1026
4071.7949,4085.641,4097.4359,4070.7692,4070.7692,4079.4872,4086.1538,4105.641,4005.1282,4100.5128,3988.2051,4135.3846
4046.6667,4084.1026,4088.7179,4067.6923,4076.4103,4077.4359,4081.5385,4108.7179,4000.5128,4096.4103,3993.3333,4129.2308
4047.6923,4073.3333,4086.1538,4070.7692,4073.3333,4073.8462,4085.1282,4110.2564,4006.6667,4098.4615,3982.5641,4131.2821
4076.4103,4076.9231,4100,4077.9487,4060,4080.5128,4093.8462,4110.2564,4015.3846,4101.5385,3981.0256,4144.6154
4068.7179,4077.9487,4103.0769,4073.3333,4057.4359,4085.1282,4093.8462,4103.0769,4012.8205,4098.9744,3988.2051,4132.8205
4053.3333,4062.0513,4096.4103,4070.2564,4061.5385,4085.641,4088.2051,4088.2051,4013.3333,4093.8462,3986.6667,4117.9487
4067.6923,4057.4359,4093.8462,4074.359,4065.1282,4089.2308,4089.7436,4077.4359,4013.3333,4087.6923,3986.6667,4127.6923
4069.7436,4067.6923,4092.8205,4072.3077,4068.7179,4087.1795,4091.2821,4074.359,4004.6154,4085.1282,3986.6667,4131.7949
4063.0769,4069.7436,4097.9487,4070.7692,4069.2308,4081.0256,4085.1282,4070.2564,4010.2564,4086.6667,3971.7949,4123.5897
4077.4359,4074.8718,4107.6923,4075.8974,4063.0769,4078.9744,4080.5128,4063.0769,4022.5641,4088.2051,3970.2564,4120.5128
4090.2564,4087.6923,4110.2564,4073.8462,4065.641,4078.4615,4081.5385,4065.641,4018.4615,4090.7692,3992.3077,4122.5641
4086.1538,4083.5897,4106.6667,4066.1538,4070.2564,4081.5385,4081.5385,4067.1795,4007.1795,4089.7436,3982.0513,4121.5385
4085.641,4081.0256,4103.5897,4064.1026,4061.0256,4086.6667,4082.0513,4062.0513,4015.3846,4086.6667,3954.8718,4120
4089.2308,4092.8205,4101.5385,4068.7179,4055.8974,4087.6923,4083.0769,4062.5641,4030.2564,4088.2051,3974.359,4123.5897
4084.6154,4087.6923,4101.0256,4070.7692,4054.8718,4084.1026,4081.0256,4059.4872,4018.4615,4083.0769,3991.7949,4121.5385
4090.2564,4081.0256,4106.1538,4070.2564,4054.359,4085.1282,4085.1282,4054.8718,4007.1795,4077.9487,3973.3333,4125.1282
4096.9231,4091.2821,4107.1795,4069.2308,4062.0513,4088.7179,4091.7949,4065.641,4013.3333,4082.5641,3971.7949,4132.8205
4084.1026,4094.8718,4102.0513,4069.7436,4064.1026,4083.5897,4089.7436,4081.5385,4021.5385,4086.6667,3983.5897,4122.0513
4085.1282,4094.359,4110.2564,4073.3333,4053.8462,4078.4615,4089.2308,4096.4103,4032.3077,4092.8205,3979.4872,4124.1026
4110.2564,4099.4872,4122.0513,4071.7949,4056.9231,4078.4615,4090.7692,4100.5128,4035.8974,4098.9744,3986.1538,4148.2051
4111.2821,4101.5385,4113.8462,4067.6923,4068.7179,4078.4615,4083.0769,4087.6923,4029.7436,4094.359,4000.5128,4134.359
4089.2308,4098.9744,4098.9744,4068.2051,4055.8974,4081.5385,4080.5128,4077.9487,4026.6667,4083.5897,3989.7436,4099.4872
4087.6923,4096.4103,4103.5897,4067.6923,4047.6923,4083.0769,4088.2051,4084.1026,4023.0769,4083.5897,3973.3333,4112.3077
4102.0513,4095.8974,4110.7692,4071.7949,4064.1026,4081.0256,4092.3077,4089.2308,4016.9231,4088.7179,3971.2821,4136.9231
4099.4872,4096.4103,4104.6154,4081.5385,4070.7692,4081.0256,4096.4103,4084.1026,4020,4082.0513,3967.1795,4124.6154
4099.4872,4099.4872,4107.6923,4087.1795,4064.6154,4087.1795,4109.2308,4087.1795,4031.7949,4083.5897,3981.5385,4125.641
4110.7692,4101.5385,4112.3077,4086.1538,4066.6667,4083.0769,4109.7436,4090.7692,4034.8718,4091.2821,4011.7949,4140.5128
4103.0769,4105.1282,4102.5641,4082.0513,4064.1026,4070.2564,4095.3846,4083.0769,4027.6923,4088.7179,4006.6667,4117.4359
4091.2821,4110.2564,4101.0256,4081.5385,4061.0256,4072.8205,4096.9231,4084.6154,4033.3333,4087.6923,3984.6154,4100
4091.2821,4105.641,4106.6667,4084.6154,4065.641,4076.4103,4104.6154,4086.1538,4038.9744,4088.7179,3981.5385,4112.8205
4094.8718,4100,4104.1026,4085.1282,4068.7179,4069.2308,4100,4075.8974,4027.1795,4085.641,3987.1795,4120
4096.9231,4102.5641,4102.5641,4085.1282,4070.2564,4066.1538,4098.9744,4073.3333,4021.0256,4084.1026,3983.0769,4115.8974
4094.8718,4100,4105.1282,4087.6923,4068.2051,4070.2564,4103.5897,4080,4033.3333,4088.2051,3984.6154,4110.7692
4101.0256,4098.9744,4106.1538,4093.8462,4068.7179,4072.8205,4106.1538,4083.0769,4043.5897,4095.3846,4011.2821,4122.0513
4106.1538,4104.1026,4106.1538,4101.0256,4071.2821,4070.7692,4102.0513,4081.5385,4029.7436,4095.8974,4016.4103,4128.2051
4100,4104.1026,4103.0769,4100,4074.359,4070.7692,4095.8974,4082.0513,4024.6154,4093.8462,3993.3333,4113.8462
4095.3846,4106.1538,4102.0513,4098.9744,4080.5128,4074.359,4096.4103,4086.6667,4049.2308,4101.0256,3996.9231,4109.2308
4097.9487,4108.7179,4105.1282,4108.7179,4078.9744,4076.4103,4103.5897,4086.6667,4058.9744,4104.6154,4013.8462,4118.9744
4092.3077,4108.2051,4102.0513,4117.9487,4075.3846,4074.359,4097.4359,4081.0256,4036.9231,4097.9487,4011.2821,4123.5897
4076.4103,4103.5897,4091.2821,4110.7692,4075.3846,4071.2821,4091.2821,4073.8462,4016.9231,4091.2821,3994.8718,4114.359
4075.8974,4100.5128,4087.1795,4096.9231,4073.3333,4072.3077,4102.5641,4072.8205,4022.0513,4090.2564,3980.5128,4107.6923
4085.641,4100.5128,4093.8462,4098.4615,4070.2564,4081.0256,4109.7436,4083.5897,4032.8205,4093.8462,3987.6923,4112.3077
4085.641,4103.0769,4101.5385,4113.3333,4073.8462,4084.1026,4109.7436,4094.359,4031.7949,4100.5128,4002.0513,4116.9231
4085.641,4106.6667,4104.6154,4123.0769,4072.8205,4076.9231,4109.7436,4096.4103,4029.7436,4104.6154,3997.4359,4120.5128
4086.1538,4107.6923,4103.5897,4118.4615,4061.0256,4071.7949,4105.1282,4091.2821,4033.3333,4102.5641,3992.3077,4126.6667
4086.6667,4109.7436,4106.6667,4114.8718,4071.2821,4078.4615,4102.0513,4100,4038.9744,4106.6667,4005.641,4129.2308
4093.3333,4113.3333,4112.3077,4122.0513,4085.641,4084.1026,4105.641,4115.8974,4040.5128,4113.3333,4003.5897,4117.9487
4091.2821,4110.7692,4109.7436,4120,4071.2821,4075.8974,4104.1026,4108.7179,4034.359,4110.2564,3988.7179,4109.2308
4082.0513,4110.2564,4103.0769,4112.3077,4066.6667,4071.7949,4098.9744,4095.3846,4025.641,4107.1795,3996.4103,4114.8718
4084.1026,4113.3333,4101.5385,4113.3333,4086.1538,4084.1026,4102.0513,4100,4026.1538,4106.1538,4005.641,4118.9744
4085.641,4109.7436,4103.0769,4122.0513,4088.7179,4088.7179,4108.2051,4104.6154,4031.7949,4101.0256,3994.8718,4115.3846
4081.0256,4115.8974,4107.1795,4129.7436,4084.1026,4084.6154,4108.7179,4104.6154,4037.4359,4102.0513,3994.359,4114.359
4082.5641,4123.5897,4110.2564,4126.6667,4089.7436,4087.1795,4111.7949,4105.641,4031.7949,4106.6667,4005.641,4120.5128
4087.6923,4115.8974,4109.7436,4120,4084.1026,4086.1538,4114.8718,4108.2051,4031.2821,4109.7436,4008.2051,4126.6667
4086.6667,4113.8462,4105.641,4118.9744,4076.4103,4072.8205,4108.2051,4112.8205,4046.6667,4111.7949,3996.4103,4121.5385
4083.0769,4122.5641,4101.0256,4117.9487,4078.9744,4070.7692,4103.0769,4111.2821,4041.0256,4108.2051,3986.6667,4117.9487
4090.2564,4128.7179,4106.1538,4120.5128,4084.6154,4082.5641,4106.6667,4104.6154,4024.1026,4106.6667,3992.3077,4126.1538
4100.5128,4128.7179,4116.9231,4127.6923,4083.5897,4080,4107.1795,4102.0513,4033.3333,4111.2821,3998.9744,4129.2308
4098.9744,4128.7179,4120,4129.2308,4076.9231,4072.3077,4102.5641,4101.5385,4047.1795,4116.4103,3995.3846,4125.1282
4094.359,4128.7179,4115.8974,4128.7179,4077.9487,4083.0769,4103.0769,4099.4872,4044.1026,4116.9231,3993.3333,4128.7179
4096.4103,4126.1538,4112.8205,4136.4103,4086.1538,4089.7436,4106.1538,4096.4103,4036.9231,4112.8205,3998.9744,4127.6923
4094.359,4123.0769,4110.7692,4141.0256,4085.1282,4078.4615,4103.0769,4097.4359,4036.4103,4111.2821,4001.5385,4117.4359
4083.0769,4114.359,4104.1026,4131.7949,4076.4103,4074.359,4101.0256,4100.5128,4047.1795,4111.7949,3994.8718,4106.6667
4082.5641,4112.8205,4102.0513,4133.3333,4082.5641,4083.0769,4107.1795,4103.0769,4061.0256,4113.8462,3999.4872,4112.3077
4088.2051,4122.5641,4103.5897,4150.7692,4088.2051,4087.1795,4110.7692,4102.5641,4054.359,4108.2051,4009.7436,4126.1538
4087.1795,4126.6667,4101.5385,4150.7692,4087.1795,4082.0513,4106.6667,4097.4359,4041.0256,4103.5897,4006.6667,4121.0256
4090.7692,4127.6923,4102.0513,4140,4094.8718,4080.5128,4103.0769,4093.8462,4052.3077,4112.8205,4007.6923,4113.3333
4094.359,4132.8205,4105.641,4140.5128,4094.8718,4084.1026,4104.6154,4100.5128,4057.9487,4122.5641,4014.8718,4117.4359
4089.7436,4130.2564,4103.0769,4146.1538,4084.1026,4085.641,4107.1795,4107.6923,4046.1538,4122.0513,4008.7179,4117.9487
4094.8718,4123.5897,4101.0256,4142.5641,4081.5385,4081.5385,4107.6923,4096.4103,4046.1538,4116.9231,3998.9744,4116.9231
4100,4121.0256,4100,4134.359,4083.0769,4075.8974,4103.0769,4081.5385,4048.2051,4115.3846,3987.1795,4112.8205
4087.1795,4117.4359,4093.3333,4127.1795,4082.0513,4076.4103,4098.4615,4086.6667,4037.9487,4117.4359,3981.0256,4102.5641
4071.7949,4111.2821,4086.6667,4120.5128,4083.0769,4083.0769,4101.5385,4098.4615,4030.2564,4114.359,3989.2308,4094.359
4072.8205,4107.6923,4084.6154,4120,4086.6667,4088.7179,4107.1795,4104.1026,4036.4103,4111.2821,3990.2564,4092.3077
4080.5128,4105.641,4085.1282,4124.6154,4092.8205,4087.1795,4105.641,4108.7179,4042.5641,4113.8462,3984.1026,4096.9231
4072.3077,4100.5128,4078.9744,4124.6154,4088.2051,4083.5897,4104.1026,4106.1538,4034.8718,4110.7692,3988.7179,4095.8974
4064.1026,4097.9487,4074.8718,4120,4078.9744,4087.6923,4107.6923,4101.0256,4034.8718,4107.1795,3979.4872,4091.2821
4066.1538,4096.9231,4079.4872,4116.4103,4085.1282,4090.7692,4107.1795,4099.4872,4045.1282,4111.2821,3958.9744,4095.3846
4068.2051,4097.4359,4084.6154,4118.9744,4093.8462,4087.6923,4105.1282,4100,4047.6923,4118.4615,3975.3846,4098.4615
4074.359,4099.4872,4087.6923,4125.641,4092.8205,4088.2051,4107.6923,4103.5897,4046.6667,4122.5641,4011.7949,4109.2308
4072.3077,4097.4359,4084.6154,4121.0256,4086.1538,4086.1538,4107.1795,4100.5128,4048.7179,4118.4615,4010.2564,4123.5897
4065.641,4105.641,4084.6154,4111.2821,4087.6923,4085.1282,4105.1282,4099.4872,4060.5128,4117.4359,3995.8974,4120.5128
4075.8974,4121.0256,4091.2821,4117.9487,4099.4872,4096.9231,4108.2051,4109.2308,4073.3333,4117.4359,4008.7179,4106.6667
4085.1282,4114.8718,4087.6923,4118.9744,4103.0769,4102.5641,4110.2564,4112.8205,4067.6923,4110.2564,4018.9744,4110.7692
4074.359,4105.641,4072.3077,4099.4872,4097.9487,4094.8718,4105.641,4109.7436,4059.4872,4101.0256,4013.3333,4121.5385
4069.7436,4115.8974,4068.7179,4085.641,4095.8974,4094.359,4105.641,4113.8462,4061.0256,4098.9744,4010.2564,4117.9487
4085.1282,4129.2308,4079.4872,4094.359,4096.9231,4101.5385,4110.7692,4123.5897,4067.1795,4109.7436,4016.4103,4118.9744
4084.1026,4131.7949,4082.0513,4100.5128,4095.3846,4102.5641,4112.3077,4124.6154,4072.3077,4116.4103,4023.5897,4122.0513
4063.0769,4128.2051,4074.359,4092.8205,4095.8974,4102.5641,4111.2821,4119.4872,4071.2821,4112.3077,4018.9744,4116.4103
4065.641,4133.8462,4078.4615,4096.4103,4102.5641,4108.2051,4114.359,4121.5385,4068.7179,4115.8974,4021.0256,4120.5128
4081.0256,4133.3333,4083.5897,4104.6154,4101.0256,4107.1795,4112.3077,4124.1026,4066.1538,4115.8974,4027.1795,4122.5641
4076.4103,4125.641,4078.9744,4103.5897,4096.4103,4101.5385,4107.6923,4110.2564,4062.0513,4105.1282,4020.5128,4112.3077
4073.3333,4129.7436,4080.5128,4104.1026,4105.641,4103.0769,4114.359,4089.2308,4064.6154,4106.1538,4019.4872,4118.9744
4077.4359,4133.8462,4084.6154,4105.1282,4111.7949,4098.9744,4119.4872,4069.2308,4075.8974,4113.8462,4030.2564,4129.7436
4074.359,4132.8205,4078.4615,4103.0769,4100.5128,4090.2564,4110.2564,4063.0769,4076.4103,4110.2564,4035.3846,4124.6154
4064.6154,4130.2564,4069.2308,4101.5385,4090.2564,4086.6667,4102.5641,4065.1282,4063.0769,4103.5897,4023.0769,4112.3077
4062.5641,4127.1795,4071.2821,4101.5385,4100.5128,4091.2821,4106.6667,4062.0513,4064.6154,4107.1795,4007.1795,4107.6923
4077.4359,4126.6667,4081.0256,4105.1282,4104.6154,4098.4615,4109.2308,4063.0769,4074.8718,4113.3333,4018.4615,4120.5128
4077.9487,4132.3077,4079.4872,4112.3077,4083.0769,4098.4615,4105.641,4063.5897,4069.7436,4110.7692,4032.8205,4123.0769
4062.5641,4133.3333,4073.3333,4112.8205,4078.9744,4099.4872,4107.1795,4065.1282,4070.7692,4107.1795,4020.5128,4117.4359
4057.9487,4128.2051,4073.3333,4104.6154,4100,4095.8974,4106.1538,4066.6667,4075.8974,4103.5897,3996.4103,4116.9231
4060.5128,4127.1795,4073.8462,4100,4099.4872,4090.7692,4100.5128,4062.0513,4062.5641,4100,3988.7179,4107.6923
4055.8974,4127.6923,4069.2308,4098.4615,4080.5128,4098.4615,4099.4872,4060.5128,4056.4103,4103.0769,3998.9744,4096.4103
4049.2308,4128.2051,4068.2051,4093.8462,4084.1026,4102.5641,4094.8718,4066.6667,4068.7179,4107.1795,3997.9487,4102.0513
4051.2821,4131.2821,4071.7949,4092.8205,4099.4872,4093.3333,4086.6667,4074.359,4073.3333,4108.7179,3996.9231,4115.3846
4060.5128,4127.1795,4072.8205,4097.4359,4099.4872,4088.7179,4087.1795,4073.3333,4065.641,4110.7692,4010.2564,4117.4359
4066.6667,4129.2308,4071.2821,4097.4359,4098.4615,4093.8462,4091.7949,4070.7692,4063.5897,4111.7949,4009.7436,4116.4103
4056.4103,4140.5128,4067.1795,4089.2308,4102.0513,4092.8205,4089.2308,4072.8205,4067.1795,4105.1282,3987.6923,4108.7179
4049.2308,4135.8974,4067.6923,4085.641,4101.0256,4088.7179,4092.3077,4079.4872,4068.2051,4103.5897,3988.2051,4106.1538
4061.0256,4129.7436,4076.9231,4093.8462,4105.641,4087.6923,4096.9231,4081.5385,4073.8462,4112.8205,4005.1282,4117.9487
4066.6667,4134.8718,4078.4615,4097.4359,4105.1282,4083.5897,4095.3846,4077.4359,4076.9231,4114.359,3987.6923,4113.8462
4069.2308,4134.8718,4078.9744,4101.5385,4097.9487,4087.6923,4101.5385,4084.1026,4070.2564,4114.359,3983.5897,4112.3077
4069.2308,4136.9231,4081.5385,4109.7436,4103.0769,4096.4103,4107.1795,4091.7949,4068.2051,4115.3846,4009.2308,4126.1538
4054.8718,4132.3077,4074.359,4107.6923,4109.2308,4091.7949,4098.9744,4084.1026,4072.3077,4107.1795,3997.9487,4117.4359
4047.6923,4120,4069.7436,4101.5385,4104.1026,4088.7179,4091.7949,4077.9487,4072.3077,4103.0769,3976.4103,4098.9744
4053.8462,4122.5641,4074.359,4103.0769,4104.6154,4089.2308,4093.8462,4081.5385,4069.7436,4104.6154,3986.1538,4103.5897
4056.4103,4131.2821,4068.7179,4108.2051,4110.7692,4083.0769,4093.8462,4078.4615,4065.1282,4099.4872,3989.7436,4110.2564
4050.2564,4126.1538,4058.9744,4107.6923,4109.2308,4076.4103,4090.2564,4071.2821,4057.4359,4094.8718,3982.5641,4103.5897
4043.5897,4110.2564,4055.8974,4101.0256,4099.4872,4074.8718,4090.7692,4065.1282,4050.7692,4094.8718,3980.5128,4093.8462
4054.8718,4108.2051,4059.4872,4102.5641,4095.8974,4076.9231,4092.3077,4069.7436,4056.9231,4099.4872,3986.6667,4098.9744
4074.359,4125.641,4069.2308,4112.8205,4102.5641,4082.5641,4093.8462,4089.2308,4072.8205,4102.5641,3998.4615,4113.8462
4065.1282,4135.8974,4075.8974,4108.7179,4104.1026,4089.7436,4095.3846,4104.1026,4077.9487,4100,3996.9231,4112.8205
4057.4359,4126.6667,4075.3846,4095.8974,4103.5897,4092.8205,4096.9231,4112.3077,4077.9487,4101.0256,3995.8974,4114.8718
4074.8718,4118.4615,4074.359,4098.9744,4108.2051,4090.2564,4097.4359,4115.3846,4080,4105.1282,4003.0769,4127.6923
4079.4872,4120,4074.8718,4108.2051,4113.8462,4090.2564,4093.3333,4114.8718,4081.0256,4101.5385,3997.4359,4125.1282
4068.2051,4119.4872,4076.9231,4105.641,4115.3846,4092.8205,4094.359,4108.2051,4081.5385,4095.8974,3997.9487,4117.9487
4072.3077,4122.0513,4085.1282,4105.1282,4114.359,4091.2821,4101.5385,4102.5641,4082.0513,4102.5641,4014.359,4128.7179
4093.3333,4136.9231,4093.8462,4114.8718,4117.4359,4092.3077,4102.0513,4107.6923,4088.7179,4113.3333,4010.2564,4138.4615
4095.8974,4144.1026,4097.9487,4117.4359,4116.4103,4101.0256,4096.9231,4104.6154,4089.2308,4115.3846,3987.6923,4125.641
4087.1795,4137.9487,4104.1026,4112.8205,4110.7692,4105.1282,4098.9744,4093.8462,4088.7179,4118.9744,3991.2821,4117.9487
4093.8462,4132.8205,4106.1538,4110.2564,4106.1538,4103.5897,4100.5128,4091.2821,4091.2821,4122.5641,4007.6923,4134.359
4093.8462,4133.3333,4093.8462,4101.0256,4100.5128,4104.6154,4093.3333,4086.1538,4084.6154,4112.8205,3996.4103,4133.8462
4087.6923,4129.7436,4085.1282,4092.3077,4095.8974,4104.6154,4088.7179,4076.4103,4084.1026,4102.5641,3978.4615,4117.9487
4093.3333,4120.5128,4091.7949,4094.359,4095.8974,4104.1026,4090.7692,4074.359,4089.2308,4100.5128,3978.9744,4115.3846
4096.9231,4116.9231,4097.4359,4097.9487,4100.5128,4107.1795,4090.2564,4077.4359,4088.7179,4102.0513,3984.1026,4121.0256
4098.9744,4118.4615,4100.5128,4100.5128,4095.8974,4109.2308,4088.7179,4082.5641,4092.8205,4103.0769,3983.5897,4121.5385
4108.2051,4115.8974,4104.1026,4108.7179,4087.1795,4107.6923,4089.2308,4084.6154,4100,4102.5641,3982.5641,4114.359
4112.3077,4113.3333,4103.0769,4108.7179,4093.3333,4109.2308,4089.7436,4081.5385,4098.9744,4104.1026,3987.1795,4108.7179
4109.7436,4113.8462,4106.6667,4100,4098.9744,4108.2051,4089.2308,4081.0256,4096.9231,4105.1282,3997.4359,4115.8974
4113.3333,4117.4359,4114.8718,4102.5641,4092.8205,4104.6154,4090.7692,4081.5385,4098.9744,4107.6923,4003.0769,4123.5897
4115.8974,4117.4359,4112.3077,4105.641,4088.2051,4103.0769,4092.8205,4078.9744,4096.4103,4108.7179,4003.5897,4116.9231
4109.2308,4109.7436,4102.0513,4092.8205,4089.7436,4103.5897,4091.7949,4076.4103,4086.1538,4097.9487,3994.359,4104.6154
4105.641,4102.5641,4106.6667,4085.641,4092.3077,4106.6667,4092.3077,4076.9231,4085.641,4095.8974,3983.5897,4110.2564
4106.6667,4101.5385,4111.2821,4093.8462,4098.9744,4108.7179,4094.359,4082.0513,4096.9231,4100,3991.2821,4116.9231
4102.5641,4101.5385,4105.1282,4094.8718,4098.4615,4104.1026,4092.8205,4087.1795,4095.8974,4096.4103,4002.5641,4100.5128
4114.8718,4104.1026,4112.3077,4094.8718,4091.7949,4104.1026,4092.8205,4088.7179,4088.7179,4105.641,4002.0513,4103.0769
4130.2564,4110.2564,4123.0769,4102.5641,4094.8718,4107.6923,4094.359,4082.0513,4088.7179,4112.8205,3992.8205,4124.1026
4128.7179,4114.359,4117.9487,4108.7179,4102.5641,4102.0513,4094.359,4075.3846,4085.641,4103.5897,3996.9231,4123.0769
4116.4103,4116.4103,4115.8974,4112.8205,4099.4872,4097.4359,4100,4079.4872,4086.6667,4102.5641,4002.5641,4109.2308
4112.8205,4107.6923,4120,4120,4094.8718,4103.0769,4106.6667,4079.4872,4095.3846,4111.7949,3994.8718,4106.1538
4127.1795,4103.5897,4118.4615,4128.2051,4098.4615,4106.1538,4106.1538,4073.8462,4096.4103,4110.2564,3997.9487,4114.8718
4127.1795,4106.6667,4112.8205,4129.2308,4092.3077,4102.5641,4101.0256,4075.3846,4089.7436,4103.0769,4008.2051,4121.5385
4118.4615,4102.0513,4113.3333,4125.641,4089.7436,4103.5897,4098.4615,4080.5128,4090.2564,4104.6154,4008.7179,4117.9487
4120.5128,4097.4359,4111.7949,4130.2564,4100,4107.1795,4096.9231,4077.9487,4088.7179,4102.5641,3992.8205,4102.5641
4118.4615,4096.4103,4105.641,4133.8462,4101.0256,4107.1795,4096.9231,4078.4615,4077.9487,4099.4872,3983.5897,4100.5128
4117.4359,4103.0769,4109.2308,4131.2821,4100.5128,4111.7949,4098.9744,4088.2051,4076.9231,4102.0513,3998.4615,4117.4359
4119.4872,4103.5897,4114.8718,4125.1282,4103.0769,4112.8205,4095.8974,4091.7949,4075.3846,4101.5385,4002.0513,4117.9487
4117.9487,4093.8462,4111.2821,4122.0513,4102.0513,4108.2051,4097.9487,4092.3077,4075.8974,4104.6154,3981.0256,4109.7436
4122.0513,4093.8462,4111.7949,4129.2308,4106.1538,4108.7179,4103.5897,4091.7949,4078.9744,4107.1795,3972.3077,4105.641
4124.1026,4103.0769,4116.4103,4133.8462,4112.3077,4108.7179,4100,4083.0769,4067.1795,4101.0256,3986.6667,4097.9487
4118.9744,4107.6923,4117.4359,4129.7436,4109.7436,4106.6667,4096.9231,4082.5641,4061.5385,4103.0769,3990.7692,4095.3846
4120,4109.7436,4117.9487,4127.1795,4105.1282,4109.2308,4104.6154,4093.8462,4075.8974,4113.8462,3982.5641,4100.5128
4128.2051,4113.3333,4118.4615,4130.7692,4110.2564,4117.9487,4109.7436,4105.1282,4089.2308,4118.4615,3990.7692,4105.1282
4125.1282,4110.7692,4117.9487,4133.8462,4116.4103,4125.641,4108.7179,4112.8205,4086.1538,4115.3846,4009.2308,4106.6667
4113.8462,4105.641,4117.9487,4132.8205,4113.3333,4120,4106.1538,4110.7692,4079.4872,4109.2308,3993.8462,4098.9744
4106.6667,4110.7692,4118.4615,4130.2564,4113.8462,4110.7692,4102.0513,4102.5641,4082.5641,4107.6923,3969.2308,4090.2564
4110.2564,4111.7949,4122.5641,4129.2308,4112.8205,4113.3333,4102.5641,4096.4103,4082.0513,4110.7692,3980,4096.4103
4124.6154,4110.7692,4132.8205,4137.9487,4105.641,4114.359,4106.1538,4094.8718,4080,4114.8718,4001.0256,4107.6923
4123.0769,4117.9487,4130.7692,4137.4359,4107.6923,4104.1026,4097.4359,4095.8974,4084.6154,4114.8718,3997.4359,4104.6154
4111.7949,4115.8974,4117.9487,4116.4103,4110.7692,4101.0256,4093.8462,4097.9487,4086.1538,4111.7949,3994.8718,4094.8718
4120,4111.7949,4121.5385,4112.3077,4109.7436,4111.2821,4103.0769,4103.0769,4086.1538,4114.359,3997.9487,4100.5128
4124.1026,4114.8718,4128.2051,4126.6667,4113.8462,4116.4103,4107.1795,4110.2564,4094.8718,4116.9231,3992.8205,4111.2821
4116.9231,4120,4122.0513,4126.1538,4116.4103,4111.2821,4105.641,4119.4872,4100,4118.4615,3998.9744,4110.2564
4117.4359,4125.641,4121.5385,4120,4112.3077,4112.3077,4109.2308,4125.641,4094.359,4118.9744,4005.1282,4109.7436
4114.8718,4117.9487,4121.0256,4122.0513,4110.2564,4115.8974,4113.3333,4124.1026,4086.6667,4114.8718,3994.8718,4109.2308
4114.8718,4111.2821,4115.3846,4126.6667,4113.3333,4116.4103,4112.3077,4120,4081.5385,4114.359,4000,4103.5897
4119.4872,4123.0769,4116.4103,4129.2308,4112.3077,4116.9231,4108.2051,4113.8462,4077.9487,4113.3333,4013.3333,4096.9231
4106.6667,4133.8462,4116.9231,4131.2821,4113.8462,4116.9231,4106.1538,4111.7949,4076.9231,4111.7949,4004.1026,4096.4103
4096.9231,4128.7179,4114.359,4129.2308,4115.3846,4114.8718,4106.6667,4114.359,4085.1282,4113.8462,4004.6154,4106.6667
4110.2564,4126.1538,4117.4359,4124.1026,4111.2821,4116.4103,4106.1538,4108.2051,4086.1538,4117.9487,4017.4359,4113.8462
4112.8205,4134.8718,4120.5128,4124.6154,4109.2308,4122.5641,4106.6667,4104.6154,4077.4359,4121.5385,4007.1795,4103.5897
4096.9231,4131.7949,4116.9231,4124.1026,4113.3333,4123.5897,4107.6923,4113.3333,4080.5128,4120.5128,4000,4095.3846
4100.5128,4120,4112.8205,4124.6154,4121.5385,4120,4107.1795,4114.8718,4089.2308,4116.9231,4017.4359,4110.2564
4124.1026,4123.0769,4114.8718,4128.7179,4126.1538,4121.5385,4110.2564,4111.7949,4091.2821,4116.9231,4033.8462,4127.1795
4128.2051,4131.7949,4116.9231,4127.1795,4123.0769,4118.9744,4114.8718,4117.4359,4093.3333,4121.0256,4021.5385,4120.5128
4112.3077,4126.1538,4112.8205,4123.5897,4120.5128,4113.8462,4112.8205,4122.5641,4104.1026,4124.6154,4012.3077,4110.7692
4098.4615,4115.3846,4103.5897,4119.4872,4126.6667,4115.8974,4107.1795,4117.4359,4102.5641,4120.5128,4015.3846,4102.0513
4097.9487,4112.8205,4099.4872,4110.7692,4128.7179,4117.4359,4109.7436,4117.4359,4088.2051,4114.359,4012.8205,4095.8974
4105.1282,4116.9231,4100.5128,4105.641,4120,4112.3077,4114.359,4126.1538,4088.2051,4117.4359,4015.8974,4104.6154
4100.5128,4112.8205,4095.3846,4106.6667,4118.4615,4107.1795,4110.7692,4122.5641,4092.3077,4116.4103,4023.5897,4101.5385
4090.7692,4100,4089.2308,4098.9744,4118.4615,4107.6923,4110.2564,4118.9744,4093.8462,4110.2564,4026.1538,4094.359
4092.3077,4094.359,4084.6154,4090.7692,4105.1282,4108.7179,4119.4872,4123.5897,4093.8462,4110.7692,4021.5385,4101.0256
4094.8718,4106.1538,4085.1282,4095.3846,4104.6154,4105.641,4122.0513,4116.4103,4087.1795,4114.359,4015.3846,4097.9487
4098.9744,4117.4359,4095.8974,4103.0769,4124.6154,4108.7179,4119.4872,4114.359,4088.7179,4119.4872,4017.9487,4097.4359
4107.1795,4113.8462,4097.9487,4100.5128,4127.6923,4112.8205,4123.0769,4128.7179,4101.5385,4121.0256,4024.1026,4110.2564
4098.9744,4112.8205,4090.2564,4100,4122.5641,4109.7436,4121.5385,4131.7949,4097.4359,4119.4872,4024.1026,4107.1795
4088.2051,4116.9231,4092.8205,4111.2821,4128.2051,4102.5641,4117.4359,4128.7179,4091.2821,4123.5897,4011.2821,4102.5641
4101.5385,4113.8462,4097.9487,4114.8718,4118.9744,4105.1282,4121.5385,4128.7179,4094.359,4130.2564,3997.4359,4113.3333
4109.7436,4122.5641,4095.8974,4117.9487,4111.7949,4109.7436,4123.0769,4128.7179,4092.3077,4131.2821,4004.1026,4105.641
4097.9487,4124.1026,4098.9744,4125.1282,4127.1795,4105.1282,4120.5128,4138.9744,4101.0256,4133.3333,4027.1795,4096.9231
4107.1795,4113.8462,4109.7436,4129.2308,4131.2821,4105.1282,4124.6154,4152.3077,4116.4103,4137.9487,4037.9487,4123.5897
4118.9744,4123.0769,4109.7436,4134.8718,4120.5128,4109.2308,4125.641,4146.6667,4109.2308,4135.8974,4030.2564,4135.3846
4098.4615,4125.641,4103.0769,4134.359,4121.5385,4105.641,4121.0256,4136.9231,4102.5641,4131.2821,4015.3846,4111.2821
4092.8205,4105.641,4106.6667,4124.6154,4128.7179,4105.641,4120.5128,4138.9744,4114.359,4132.8205,4017.9487,4117.9487
4106.1538,4102.0513,4111.2821,4116.9231,4131.2821,4108.7179,4120.5128,4135.3846,4104.6154,4129.7436,4031.2821,4131.7949
4091.7949,4107.1795,4103.0769,4114.359,4128.7179,4106.1538,4118.4615,4126.1538,4083.0769,4125.641,4023.0769,4100.5128
4080.5128,4101.0256,4098.9744,4109.2308,4125.1282,4109.7436,4121.0256,4127.1795,4093.8462,4131.2821,4013.3333,4086.6667
4097.9487,4100.5128,4106.1538,4109.7436,4123.5897,4114.359,4118.9744,4128.7179,4102.0513,4131.7949,4027.6923,4114.359
4114.359,4105.641,4111.7949,4115.3846,4128.2051,4110.2564,4113.8462,4132.8205,4091.2821,4129.7436,4036.9231,4125.1282
4114.8718,4106.1538,4112.8205,4108.2051,4129.7436,4108.2051,4118.9744,4145.1282,4098.9744,4135.3846,4025.641,4111.7949
4108.7179,4101.5385,4107.6923,4096.9231,4124.1026,4110.2564,4126.1538,4151.7949,4114.359,4143.5897,4025.641,4106.6667
4103.0769,4104.1026,4103.5897,4093.8462,4127.1795,4112.8205,4123.5897,4149.7436,4110.7692,4141.5385,4043.0769,4109.7436
4101.5385,4107.1795,4103.0769,4090.2564,4131.2821,4115.8974,4122.5641,4150.2564,4096.9231,4132.3077,4037.9487,4105.641
4109.2308,4098.4615,4100.5128,4077.9487,4127.1795,4111.2821,4123.0769,4147.6923,4092.8205,4128.7179,4010.7692,4098.9744
4111.7949,4096.4103,4100.5128,4068.7179,4126.6667,4106.6667,4120.5128,4142.5641,4094.8718,4131.2821,4013.8462,4094.8718
4118.9744,4107.6923,4114.359,4070.2564,4138.4615,4116.9231,4125.1282,4148.2051,4097.4359,4140.5128,4040.5128,4105.1282
4133.8462,4122.5641,4128.2051,4082.0513,4154.359,4126.1538,4130.7692,4157.4359,4107.6923,4142.5641,4041.5385,4116.9231
4123.0769,4127.6923,4122.0513,4087.1795,4160.5128,4124.1026,4127.6923,4158.4615,4111.2821,4134.359,4028.2051,4105.1282
4117.9487,4122.5641,4120.5128,4082.5641,4160,4123.0769,4127.6923,4165.641,4113.3333,4139.4872,4038.9744,4109.7436
4133.8462,4114.359,4124.6154,4077.9487,4154.359,4124.1026,4130.2564,4172.3077,4114.359,4145.1282,4047.6923,4130.7692
4123.0769,4110.7692,4110.2564,4073.3333,4152.3077,4119.4872,4125.1282,4163.0769,4100,4133.3333,4035.8974,4115.8974
4101.0256,4107.6923,4096.9231,4072.3077,4155.3846,4118.4615,4123.5897,4155.8974,4092.8205,4129.2308,4021.5385,4088.2051
4103.5897,4101.5385,4105.1282,4073.8462,4152.8205,4117.9487,4127.6923,4157.4359,4100.5128,4134.359,4012.8205,4093.8462
4108.7179,4106.6667,4112.3077,4074.359,4155.3846,4113.3333,4126.6667,4156.9231,4095.8974,4130.7692,4026.1538,4104.1026
4107.1795,4113.3333,4105.1282,4073.8462,4156.4103,4112.8205,4129.7436,4158.4615,4083.5897,4128.2051,4041.5385,4098.9744
4115.8974,4111.2821,4101.0256,4076.9231,4144.6154,4118.4615,4137.9487,4159.4872,4089.7436,4135.8974,4031.7949,4103.5897
4122.0513,4118.9744,4107.1795,4081.5385,4144.6154,4123.5897,4133.8462,4159.4872,4105.641,4144.6154,4025.1282,4109.2308
4120.5128,4122.5641,4109.2308,4080.5128,4157.9487,4124.6154,4125.1282,4159.4872,4108.2051,4144.1026,4031.7949,4102.0513
4119.4872,4111.7949,4099.4872,4077.4359,4149.2308,4121.5385,4124.1026,4156.4103,4095.8974,4136.4103,4028.7179,4097.9487
4116.9231,4114.8718,4092.3077,4078.9744,4129.7436,4120.5128,4123.5897,4150.7692,4089.7436,4131.7949,4016.4103,4096.9231
4112.8205,4129.2308,4098.4615,4089.2308,4136.9231,4121.0256,4129.7436,4151.2821,4096.4103,4131.7949,4012.3077,4083.5897
4111.2821,4130.2564,4103.0769,4096.9231,4159.4872,4127.1795,4142.0513,4158.9744,4101.5385,4136.4103,4017.9487,4076.9231
4108.7179,4130.2564,4103.5897,4098.9744,4146.1538,4129.2308,4141.0256,4163.0769,4102.5641,4141.5385,4017.9487,4096.9231
4100,4121.5385,4106.1538,4106.6667,4108.7179,4118.9744,4132.8205,4156.9231,4104.1026,4139.4872,4003.5897,4104.6154
4098.9744,4097.9487,4102.5641,4109.7436,4115.3846,4113.3333,4136.4103,4148.2051,4104.1026,4133.8462,4000.5128,4079.4872
4111.2821,4104.6154,4091.7949,4095.8974,4157.4359,4121.0256,4137.4359,4147.1795,4103.0769,4129.7436,4014.359,4066.6667
4120,4138.4615,4091.7949,4088.7179,4165.1282,4125.641,4129.2308,4153.3333,4109.7436,4134.8718,4029.2308,4092.3077
4110.7692,4134.8718,4103.5897,4103.0769,4132.8205,4117.9487,4124.6154,4157.4359,4118.9744,4141.5385,4034.8718,4108.2051
4099.4872,4112.3077,4105.1282,4108.7179,4125.641,4115.3846,4126.1538,4160,4122.5641,4142.5641,4034.8718,4086.6667
4105.641,4130.7692,4094.359,4086.6667,4156.9231,4126.1538,4128.2051,4164.1026,4122.0513,4139.4872,4039.4872,4073.8462
4108.2051,4138.9744,4089.7436,4073.8462,4131.2821,4123.0769,4130.2564,4165.1282,4115.8974,4133.3333,4033.3333,4082.0513
4090.2564,4097.9487,4093.3333,4092.8205,4084.6154,4108.2051,4128.7179,4167.1795,4112.3077,4132.3077,4016.9231,4078.4615
4083.5897,4075.3846,4091.7949,4098.9744,4104.1026,4110.7692,4127.1795,4169.2308,4111.7949,4132.8205,4009.7436,4060.5128
4094.359,4083.5897,4095.8974,4081.5385,4128.2051,4128.2051,4133.8462,4171.7949,4114.359,4135.8974,4004.1026,4051.2821
4098.4615,4095.8974,4110.2564,4072.3077,4126.6667,4134.8718,4140.5128,4177.9487,4125.641,4143.5897,4003.5897,4062.0513
4090.2564,4118.9744,4106.6667,4060.5128,4143.0769,4133.8462,4139.4872,4181.5385,4127.1795,4141.5385,4014.359,4066.6667
4094.359,4142.5641,4096.9231,4041.0256,4156.9231,4138.9744,4141.5385,4186.1538,4122.5641,4135.3846,4021.5385,4060.5128
4109.2308,4134.8718,4106.1538,4026.1538,4142.5641,4140,4142.0513,4189.7436,4129.7436,4134.8718,4013.8462,4064.1026
4100.5128,4110.7692,4113.3333,4004.1026,4128.7179,4134.359,4136.9231,4177.9487,4131.7949,4132.8205,4005.1282,4069.7436
4093.3333,4104.1026,4115.8974,3981.5385,4117.9487,4136.4103,4142.5641,4172.8205,4128.7179,4132.3077,4006.6667,4075.3846
4093.8462,4074.359,4114.8718,3970.2564,4115.3846,4144.1026,4151.7949,4175.8974,4126.6667,4131.7949,3998.4615,4064.6154
4081.5385,4033.8462,4109.7436,3958.4615,4120,4147.1795,4146.1538,4167.1795,4123.5897,4124.1026,3989.2308,4045.641
4076.4103,4037.9487,4116.9231,3947.1795,4111.7949,4147.6923,4143.5897,4161.0256,4124.6154,4122.0513,4003.5897,4050.7692
4090.7692,4066.1538,4124.6154,3926.1538,4136.9231,4151.7949,4150.2564,4162.0513,4128.2051,4131.7949,4015.8974,4069.7436
4107.6923,4078.4615,4126.1538,3897.9487,4171.7949,4160.5128,4153.8462,4167.1795,4143.5897,4145.641,4023.0769,4086.6667
4104.1026,4072.3077,4134.8718,3889.2308,4169.2308,4168.7179,4162.5641,4176.4103,4163.0769,4150.7692,4036.4103,4100.5128
4086.1538,4061.5385,4144.1026,3886.6667,4165.641,4168.7179,4170.7692,4171.2821,4161.0256,4147.6923,4033.8462,4101.0256
4066.1538,4046.6667,4138.9744,3866.6667,4167.1795,4170.7692,4168.2051,4154.8718,4148.2051,4143.0769,4013.8462,4084.6154
4064.1026,4050.7692,4136.9231,3848.7179,4156.4103,4175.3846,4175.3846,4163.0769,4156.9231,4142.5641,4014.359,4086.1538
4073.3333,4062.0513,4147.1795,3856.9231,4153.8462,4178.4615,4188.7179,4188.7179,4176.9231,4152.8205,4040.5128,4106.6667
4062.0513,4046.1538,4151.7949,3848.2051,4153.3333,4171.7949,4180.5128,4187.1795,4178.4615,4155.3846,4047.6923,4112.3077
4049.2308,4031.2821,4149.2308,3811.7949,4152.8205,4170.2564,4166.6667,4171.7949,4174.8718,4151.2821,4029.2308,4109.7436
4050.7692,4041.5385,4147.1795,3792.8205,4159.4872,4178.4615,4168.7179,4173.3333,4183.5897,4154.8718,4023.5897,4113.8462
4037.9487,4041.5385,4152.3077,3795.8974,4150.7692,4176.9231,4172.3077,4176.4103,4191.2821,4158.4615,4033.3333,4117.4359
4022.5641,4029.7436,4156.9231,3792.8205,4144.6154,4169.7436,4166.1538,4164.6154,4191.2821,4154.8718,4035.3846,4115.3846
4026.6667,4027.6923,4152.8205,3781.5385,4151.2821,4165.641,4163.5897,4150.2564,4185.641,4150.7692,4027.6923,4110.7692
4019.4872,4020,4147.1795,3772.3077,4142.5641,4167.1795,4168.2051,4150.2564,4178.9744,4150.2564,4028.2051,4111.2821
4005.641,4009.2308,4147.6923,3764.6154,4129.7436,4176.9231,4170.2564,4161.0256,4180.5128,4150.7692,4034.8718,4127.1795
4009.2308,4017.9487,4147.6923,3762.0513,4146.1538,4178.9744,4173.3333,4163.5897,4189.2308,4153.8462,4038.4615,4140
4017.9487,4034.8718,4155.3846,3777.9487,4149.7436,4170.2564,4183.5897,4169.2308,4205.1282,4165.641,4050.7692,4149.2308
4015.3846,4025.641,4167.1795,3795.3846,4130.7692,4172.3077,4187.6923,4180.5128,4213.8462,4167.1795,4058.9744,4159.4872
4007.6923,4006.1538,4167.6923,3796.9231,4145.1282,4182.0513,4177.9487,4173.8462,4212.3077,4160,4057.9487,4160
4007.1795,4023.0769,4166.6667,3794.359,4176.4103,4182.5641,4170.7692,4160.5128,4208.7179,4164.1026,4065.1282,4162.0513
4017.4359,4053.8462,4171.2821,3796.4103,4177.4359,4182.0513,4172.8205,4164.1026,4209.2308,4171.7949,4067.1795,4170.7692
4025.641,4059.4872,4180.5128,3807.6923,4162.0513,4185.641,4180.5128,4177.4359,4217.4359,4174.8718,4068.7179,4179.4872
4010.2564,4042.0513,4187.1795,3817.4359,4159.4872,4186.1538,4188.2051,4183.5897,4220,4175.8974,4081.0256,4185.641
4002.0513,4034.359,4181.5385,3814.359,4166.6667,4189.7436,4191.2821,4181.0256,4211.7949,4178.4615,4088.2051,4189.2308
4025.1282,4053.3333,4179.4872,3809.2308,4181.5385,4196.4103,4192.3077,4180.5128,4215.8974,4185.1282,4089.7436,4194.8718
4031.7949,4063.0769,4181.0256,3815.8974,4169.2308,4188.7179,4192.3077,4184.1026,4224.1026,4188.7179,4095.3846,4198.4615
4002.5641,4038.4615,4168.7179,3814.359,4128.7179,4174.359,4187.6923,4184.6154,4218.4615,4180.5128,4090.2564,4190.7692
3978.4615,4017.4359,4156.9231,3798.4615,4134.359,4168.2051,4184.1026,4170.7692,4209.2308,4167.6923,4071.7949,4178.9744
3982.0513,4033.3333,4161.5385,3796.9231,4162.0513,4165.641,4179.4872,4154.359,4196.9231,4166.6667,4062.0513,4175.8974
3993.8462,4041.0256,4165.641,3801.0256,4148.2051,4158.4615,4172.8205,4152.8205,4192.3077,4175.8974,4070.2564,4185.641
3984.1026,4011.7949,4163.5897,3797.9487,4124.1026,4150.2564,4169.7436,4161.0256,4203.5897,4179.4872,4085.1282,4195.3846
3973.8462,4003.0769,4162.5641,3797.9487,4134.8718,4149.7436,4170.7692,4164.6154,4210.2564,4176.9231,4095.3846,4200
3988.7179,4028.2051,4163.0769,3810.2564,4148.7179,4158.9744,4176.9231,4171.7949,4206.1538,4177.4359,4103.0769,4203.5897
3992.8205,4032.8205,4166.1538,3826.6667,4145.641,4163.0769,4181.0256,4177.4359,4204.6154,4176.4103,4105.1282,4201.5385
3981.0256,4024.1026,4167.6923,3837.9487,4140.5128,4156.4103,4175.8974,4167.1795,4208.2051,4170.2564,4096.4103,4196.9231
3977.9487,4021.5385,4165.1282,3844.6154,4121.5385,4152.3077,4170.7692,4158.4615,4206.1538,4164.6154,4093.3333,4188.7179
3971.7949,4005.1282,4165.1282,3841.5385,4114.8718,4157.9487,4173.8462,4161.5385,4202.0513,4165.1282,4096.4103,4179.4872
3966.6667,4000.5128,4164.1026,3836.9231,4138.9744,4164.1026,4174.8718,4162.0513,4202.0513,4164.1026,4088.2051,4176.9231
3975.8974,4026.6667,4160.5128,3839.4872,4151.7949,4161.5385,4171.2821,4156.9231,4206.6667,4163.5897,4085.641,4181.5385
3989.7436,4045.1282,4164.1026,3848.7179,4139.4872,4155.8974,4171.7949,4160,4220,4171.7949,4110.2564,4191.7949
3987.6923,4040,4168.2051,3850.2564,4136.4103,4154.359,4172.8205,4164.6154,4227.6923,4175.3846,4127.6923,4193.8462
3982.0513,4041.5385,4167.6923,3845.641,4142.5641,4155.8974,4175.3846,4169.2308,4224.6154,4174.359,4123.5897,4196.4103
3992.3077,4053.3333,4170.2564,3857.4359,4129.2308,4156.4103,4183.5897,4174.359,4229.2308,4180,4126.1538,4202.0513
4002.5641,4061.0256,4176.9231,3873.8462,4117.9487,4157.9487,4187.6923,4166.1538,4235.3846,4185.641,4127.1795,4201.5385
3988.7179,4050.2564,4175.3846,3875.8974,4127.6923,4158.4615,4176.4103,4154.8718,4226.1538,4177.4359,4112.3077,4194.8718
3971.2821,4027.6923,4163.0769,3869.2308,4137.4359,4158.4615,4166.1538,4153.8462,4208.7179,4162.0513,4096.4103,4181.5385
3983.5897,4041.0256,4155.8974,3875.8974,4140,4166.6667,4176.4103,4161.5385,4211.7949,4164.1026,4091.2821,4178.9744
3996.9231,4071.7949,4156.4103,3891.7949,4141.0256,4173.3333,4183.5897,4172.8205,4223.5897,4174.8718,4100,4195.3846
3980.5128,4061.5385,4153.3333,3893.8462,4136.4103,4162.5641,4174.359,4174.359,4214.8718,4173.8462,4105.641,4200
3968.2051,4039.4872,4150.7692,3892.8205,4126.6667,4149.7436,4169.2308,4171.7949,4204.6154,4172.3077,4098.9744,4189.7436
3966.6667,4047.1795,4157.9487,3906.6667,4124.6154,4148.2051,4172.3077,4174.8718,4213.3333,4172.8205,4092.8205,4195.8974
3967.1795,4057.4359,4166.6667,3928.2051,4124.1026,4151.2821,4171.7949,4176.9231,4227.1795,4172.8205,4102.0513,4210.7692
3982.0513,4057.9487,4168.7179,3935.3846,4117.9487,4153.3333,4170.7692,4178.4615,4226.6667,4178.9744,4111.2821,4211.2821
3993.8462,4056.9231,4162.0513,3930.7692,4115.8974,4151.2821,4165.1282,4181.5385,4214.8718,4176.9231,4093.8462,4205.1282
3978.4615,4055.8974,4156.9231,3938.9744,4129.7436,4153.3333,4159.4872,4181.5385,4210.7692,4164.1026,4082.5641,4198.9744
3962.0513,4061.0256,4157.9487,3948.7179,4136.4103,4161.5385,4166.1538,4179.4872,4216.4103,4162.0513,4097.9487,4192.8205
3970.7692,4061.0256,4154.8718,3936.9231,4127.1795,4162.5641,4169.7436,4181.5385,4216.9231,4170.7692,4101.0256,4190.7692
3977.9487,4054.359,4141.0256,3929.7436,4136.4103,4156.9231,4158.4615,4177.9487,4205.1282,4167.6923,4084.1026,4190.7692
3969.7436,4061.0256,4139.4872,3956.9231,4140.5128,4154.359,4152.3077,4167.1795,4198.4615,4160.5128,4081.5385,4186.6667
3973.3333,4076.4103,4154.8718,3987.6923,4122.0513,4154.8718,4156.9231,4173.8462,4214.8718,4172.3077,4092.8205,4192.3077
3985.1282,4074.359,4159.4872,3988.2051,4124.6154,4153.3333,4155.8974,4184.1026,4228.2051,4181.5385,4087.1795,4202.0513
3984.6154,4066.6667,4148.7179,3978.9744,4144.1026,4150.2564,4151.7949,4175.3846,4220.5128,4171.7949,4073.3333,4193.8462
3978.9744,4072.8205,4142.5641,3985.1282,4133.8462,4146.6667,4150.7692,4168.2051,4215.8974,4166.6667,4072.3077,4182.0513
3973.3333,4067.6923,4141.5385,4001.0256,4111.2821,4145.641,4148.2051,4175.3846,4217.4359,4167.1795,4070.2564,4177.4359
3966.1538,4052.8205,4136.4103,4003.5897,4117.4359,4147.6923,4143.5897,4177.9487,4211.7949,4165.641,4064.6154,4178.4615
3967.1795,4052.3077,4133.3333,3989.2308,4135.8974,4149.7436,4140.5128,4170.2564,4209.7436,4164.1026,4056.9231,4175.3846
3971.2821,4054.359,4130.2564,3982.0513,4132.8205,4151.2821,4144.6154,4169.2308,4203.5897,4161.0256,4048.2051,4166.1538
3973.8462,4056.4103,4131.7949,4004.6154,4109.7436,4155.3846,4153.3333,4182.0513,4201.0256,4163.5897,4049.7436,4170.7692
3972.3077,4058.4615,4134.8718,4017.9487,4105.641,4156.4103,4156.9231,4185.641,4209.2308,4165.1282,4057.9487,4177.4359
3974.8718,4054.8718,4125.641,4004.6154,4125.641,4154.8718,4148.2051,4173.8462,4204.1026,4156.4103,4048.2051,4165.641
3978.4615,4052.3077,4117.9487,4008.7179,4130.7692,4153.8462,4138.9744,4169.7436,4195.3846,4152.8205,4027.6923,4158.4615
3972.8205,4057.9487,4125.1282,4026.6667,4115.3846,4145.1282,4140,4175.8974,4197.9487,4157.4359,4021.0256,4163.0769
3976.9231,4063.0769,4129.7436,4030.2564,4113.8462,4134.359,4137.4359,4174.359,4201.5385,4160.5128,4032.3077,4164.1026
3990.2564,4070.7692,4123.0769,4029.2308,4127.6923,4134.359,4128.7179,4168.2051,4200,4161.0256,4041.0256,4164.6154
3987.6923,4077.9487,4117.9487,4038.9744,4118.4615,4138.4615,4125.1282,4166.6667,4200.5128,4161.0256,4035.8974,4162.5641
3973.8462,4064.6154,4114.359,4044.1026,4103.5897,4138.4615,4125.641,4165.1282,4197.9487,4153.3333,4025.641,4152.8205
3965.641,4045.641,4104.1026,4033.8462,4114.8718,4138.9744,4127.1795,4155.3846,4188.7179,4141.0256,4016.9231,4145.1282
3966.6667,4057.9487,4100.5128,4022.0513,4121.0256,4138.9744,4134.359,4151.7949,4185.641,4137.9487,4012.8205,4146.6667
3974.359,4077.4359,4105.641,4025.641,4105.641,4134.8718,4138.9744,4160.5128,4186.1538,4141.5385,4006.1538,4149.2308
3972.3077,4072.3077,4100.5128,4042.0513,4097.4359,4131.7949,4136.4103,4165.1282,4184.1026,4140.5128,3996.4103,4139.4872
3970.7692,4069.2308,4088.2051,4052.3077,4111.2821,4136.4103,4135.3846,4163.0769,4183.0769,4137.4359,4003.5897,4137.4359
3979.4872,4076.4103,4091.7949,4053.8462,4117.9487,4140,4129.7436,4164.1026,4183.0769,4140.5128,4010.2564,4143.5897
3988.7179,4083.5897,4108.7179,4069.7436,4106.6667,4133.3333,4121.0256,4170.2564,4189.2308,4151.2821,4003.5897,4148.7179
3991.2821,4078.9744,4111.2821,4092.8205,4098.9744,4129.2308,4119.4872,4170.7692,4192.8205,4150.2564,4002.5641,4149.7436
3982.0513,4064.6154,4101.0256,4087.1795,4107.1795,4136.4103,4122.5641,4162.5641,4183.5897,4141.0256,4003.0769,4143.5897
3978.9744,4066.6667,4097.9487,4074.8718,4110.2564,4141.0256,4123.0769,4160,4177.9487,4139.4872,3997.4359,4142.5641
3984.6154,4073.8462,4099.4872,4082.0513,4096.9231,4134.8718,4122.5641,4161.0256,4179.4872,4141.0256,3989.2308,4147.1795
3985.1282,4069.7436,4094.359,4084.6154,4103.0769,4134.359,4121.5385,4160,4171.7949,4141.0256,3986.1538,4145.641
3982.5641,4073.3333,4087.6923,4075.8974,4110.2564,4139.4872,4123.0769,4163.5897,4162.0513,4137.4359,3988.7179,4134.8718
3981.5385,4082.0513,4090.7692,4080,4091.2821,4135.8974,4128.2051,4166.1538,4162.0513,4134.359,3989.2308,4131.2821
3977.9487,4076.9231,4096.9231,4084.6154,4091.2821,4131.7949,4126.6667,4164.6154,4161.5385,4132.3077,3981.0256,4136.4103
3978.4615,4072.8205,4091.7949,4076.9231,4113.3333,4133.3333,4122.0513,4163.5897,4152.3077,4131.2821,3976.9231,4136.9231
3991.2821,4078.4615,4088.7179,4084.6154,4117.9487,4131.7949,4122.0513,4166.6667,4155.8974,4140.5128,3983.5897,4143.5897
4002.5641,4087.1795,4099.4872,4100,4105.641,4130.7692,4124.1026,4170.7692,4172.3077,4147.6923,3987.1795,4151.2821
4002.5641,4094.359,4105.641,4103.0769,4098.9744,4132.3077,4122.5641,4173.8462,4171.7949,4144.6154,3986.6667,4149.2308
3998.4615,4089.2308,4107.6923,4115.3846,4104.1026,4138.4615,4124.1026,4183.5897,4169.2308,4147.1795,3988.7179,4153.3333
4007.1795,4084.1026,4116.4103,4135.8974,4116.4103,4147.1795,4128.2051,4190.2564,4180.5128,4152.3077,3984.6154,4161.5385
4026.6667,4092.3077,4115.3846,4127.1795,4120,4149.7436,4122.0513,4181.5385,4178.4615,4148.2051,3979.4872,4157.9487
4030.2564,4094.359,4105.1282,4104.6154,4109.7436,4147.1795,4114.8718,4170.2564,4161.5385,4144.1026,3975.3846,4149.7436
4012.3077,4081.5385,4102.0513,4113.8462,4104.6154,4147.6923,4117.9487,4166.6667,4146.1538,4139.4872,3959.4872,4147.1795
4000.5128,4076.9231,4100.5128,4130.2564,4111.2821,4154.8718,4123.5897,4165.1282,4136.9231,4134.8718,3944.6154,4149.2308
3995.3846,4072.3077,4091.2821,4121.0256,4112.3077,4155.3846,4123.5897,4163.0769,4134.8718,4136.9231,3944.1026,4142.5641
3994.8718,4070.2564,4088.2051,4123.0769,4106.6667,4149.2308,4123.0769,4167.6923,4146.1538,4140,3951.7949,4140
4007.1795,4086.1538,4090.2564,4143.5897,4110.2564,4147.6923,4122.0513,4173.8462,4151.2821,4134.359,3956.9231,4151.7949
4014.8718,4095.3846,4085.1282,4137.4359,4120,4145.641,4121.5385,4172.8205,4144.1026,4134.359,3952.3077,4155.8974
4012.3077,4093.8462,4085.1282,4126.1538,4113.3333,4144.6154,4125.1282,4175.8974,4154.8718,4149.7436,3950.7692,4153.3333
4012.3077,4094.359,4091.2821,4136.4103,4098.9744,4146.1538,4121.0256,4176.4103,4162.5641,4153.8462,3954.359,4151.7949
4021.5385,4091.7949,4086.6667,4135.8974,4099.4872,4140,4103.0769,4166.1538,4143.0769,4139.4872,3952.8205,4142.5641
4028.2051,4083.5897,4076.9231,4118.4615,4107.1795,4128.7179,4094.359,4161.0256,4127.6923,4131.2821,3948.2051,4136.9231
4023.0769,4077.9487,4074.8718,4116.9231,4107.6923,4131.2821,4102.5641,4164.1026,4130.2564,4132.8205,3946.6667,4140.5128
4023.5897,4085.641,4079.4872,4124.1026,4101.0256,4138.9744,4109.2308,4171.2821,4144.1026,4138.4615,3953.8462,4150.7692
4032.8205,4093.8462,4085.1282,4128.2051,4088.7179,4128.7179,4107.1795,4176.9231,4150.2564,4140,3961.0256,4158.4615
4033.3333,4081.5385,4086.1538,4132.3077,4085.1282,4120.5128,4106.1538,4177.4359,4141.5385,4136.4103,3955.8974,4148.2051
4033.3333,4074.359,4084.1026,4131.7949,4104.1026,4132.8205,4106.6667,4179.4872,4132.3077,4133.3333,3952.8205,4135.3846
4041.0256,4091.7949,4081.5385,4126.1538,4108.2051,4141.5385,4109.7436,4186.1538,4131.2821,4135.8974,3957.4359,4141.0256
4042.0513,4101.0256,4077.9487,4125.1282,4096.4103,4142.5641,4116.9231,4189.2308,4131.7949,4140,3958.9744,4149.7436
4032.3077,4083.5897,4072.8205,4129.2308,4100.5128,4141.0256,4121.0256,4184.1026,4130.7692,4134.359,3948.2051,4140
4031.7949,4070.2564,4068.7179,4133.8462,4101.0256,4138.9744,4121.0256,4176.4103,4130.7692,4126.6667,3941.0256,4131.7949
4043.0769,4080.5128,4077.4359,4141.5385,4089.2308,4149.7436,4123.0769,4175.3846,4134.8718,4130.2564,3951.2821,4141.5385
4043.5897,4087.6923,4082.5641,4140,4093.3333,4158.9744,4125.1282,4173.8462,4142.0513,4133.3333,3955.3846,4145.641
4043.0769,4087.6923,4080,4133.8462,4114.359,4158.9744,4122.0513,4164.1026,4147.1795,4134.359,3949.2308,4147.1795
4053.3333,4092.8205,4087.1795,4141.5385,4113.8462,4160.5128,4121.0256,4158.4615,4149.2308,4138.9744,3949.2308,4157.9487
4061.0256,4096.4103,4099.4872,4148.2051,4095.3846,4160.5128,4124.6154,4160,4150.2564,4144.1026,3946.6667,4161.0256
4069.7436,4101.0256,4101.5385,4144.1026,4102.0513,4156.9231,4124.6154,4157.4359,4154.359,4146.1538,3937.4359,4154.8718
4081.5385,4107.1795,4101.0256,4138.9744,4111.7949,4159.4872,4123.5897,4148.2051,4158.4615,4144.6154,3929.7436,4154.359
4083.5897,4106.1538,4110.2564,4134.8718,4093.8462,4160.5128,4124.6154,4145.1282,4162.5641,4147.1795,3930.2564,4153.8462
4081.5385,4095.3846,4115.3846,4129.7436,4086.6667,4159.4872,4122.0513,4148.7179,4167.1795,4149.2308,3931.7949,4148.7179
4088.7179,4091.2821,4116.9231,4136.9231,4101.5385,4163.0769,4117.9487,4153.3333,4166.1538,4149.7436,3935.3846,4156.4103
4099.4872,4094.359,4124.1026,4143.5897,4105.641,4166.1538,4116.4103,4154.8718,4168.2051,4152.3077,3937.9487,4166.6667
4105.1282,4090.2564,4120.5128,4131.7949,4103.5897,4165.641,4112.8205,4141.0256,4167.6923,4147.6923,3924.1026,4151.2821
4111.2821,4088.7179,4118.4615,4131.2821,4094.359,4163.5897,4114.359,4129.7436,4157.9487,4143.5897,3909.2308,4142.5641
4106.1538,4072.3077,4121.5385,4140.5128,4081.0256,4160.5128,4119.4872,4126.1538,4146.6667,4136.9231,3904.1026,4143.5897
4092.8205,4049.7436,4111.2821,4127.6923,4090.7692,4162.0513,4118.9744,4115.3846,4140,4126.1538,3896.4103,4121.5385
4101.5385,4061.5385,4103.5897,4118.9744,4111.2821,4170.7692,4119.4872,4113.8462,4145.641,4127.1795,3902.0513,4114.8718
4116.9231,4081.0256,4114.359,4136.4103,4108.7179,4180,4130.2564,4127.1795,4157.4359,4133.8462,3920.5128,4137.4359
4120.5128,4075.8974,4124.1026,4156.4103,4096.9231,4182.5641,4137.4359,4132.8205,4164.6154,4135.3846,3928.2051,4147.1795
4130.7692,4077.4359,4129.2308,4164.1026,4095.3846,4182.5641,4136.4103,4131.7949,4170.7692,4138.9744,3932.3077,4143.5897
4138.4615,4093.3333,4138.4615,4164.6154,4102.5641,4178.9744,4135.8974,4135.8974,4173.8462,4144.6154,3938.4615,4143.0769
4129.7436,4090.7692,4136.4103,4166.1538,4104.6154,4175.3846,4130.2564,4137.9487,4171.7949,4146.6667,3937.4359,4142.5641
4125.1282,4079.4872,4129.2308,4174.359,4097.9487,4177.4359,4124.1026,4139.4872,4165.641,4145.1282,3933.3333,4145.1282
4135.8974,4087.6923,4134.8718,4181.5385,4111.7949,4182.0513,4129.7436,4144.6154,4162.5641,4146.1538,3940,4149.7436
4148.2051,4102.0513,4141.5385,4188.7179,4132.8205,4180,4137.4359,4150.7692,4170.2564,4151.7949,3954.359,4153.3333
4150.7692,4101.0256,4142.0513,4195.8974,4117.4359,4177.4359,4136.9231,4151.7949,4176.9231,4158.4615,3956.4103,4157.4359
4147.1795,4099.4872,4147.6923,4193.3333,4098.4615,4185.1282,4136.4103,4144.6154,4170.7692,4162.0513,3952.8205,4156.9231
4146.1538,4099.4872,4152.8205,4182.0513,4105.641,4184.6154,4135.3846,4132.3077,4158.4615,4155.8974,3958.4615,4146.1538
4150.2564,4088.2051,4149.2308,4181.0256,4110.7692,4177.9487,4134.359,4127.6923,4153.3333,4148.7179,3963.5897,4141.0256
4152.8205,4090.7692,4149.2308,4193.8462,4107.6923,4183.0769,4143.5897,4135.3846,4154.359,4149.2308,3960,4148.2051
4147.6923,4096.4103,4148.2051,4195.8974,4110.7692,4186.6667,4154.359,4138.4615,4149.2308,4146.6667,3956.9231,4145.641
4154.359,4088.7179,4147.6923,4194.359,4112.3077,4185.641,4156.9231,4142.5641,4147.6923,4147.1795,3962.0513,4141.0256
4168.7179,4091.2821,4153.3333,4208.7179,4111.2821,4189.7436,4156.9231,4156.4103,4157.9487,4157.9487,3966.1538,4149.2308
4166.1538,4101.5385,4156.9231,4219.4872,4113.8462,4184.6154,4152.3077,4159.4872,4166.1538,4163.0769,3968.7179,4149.7436
4163.0769,4096.9231,4154.359,4206.1538,4110.2564,4171.7949,4141.0256,4147.6923,4161.0256,4153.8462,3968.7179,4137.4359
4169.7436,4094.359,4149.7436,4192.8205,4106.1538,4172.3077,4135.3846,4143.5897,4154.8718,4149.7436,3963.0769,4137.4359
4172.8205,4106.1538,4149.7436,4200,4117.4359,4178.4615,4138.4615,4154.359,4160,4160,3963.5897,4152.3077
4169.2308,4112.8205,4151.7949,4209.2308,4129.7436,4176.4103,4143.5897,4160.5128,4165.1282,4159.4872,3966.6667,4155.3846
4164.1026,4111.2821,4154.8718,4212.8205,4119.4872,4173.3333,4150.7692,4159.4872,4157.4359,4152.3077,3960.5128,4145.641
4161.0256,4113.8462,4158.9744,4220,4104.6154,4177.9487,4154.8718,4157.4359,4154.359,4153.3333,3958.9744,4143.5897
4159.4872,4107.6923,4152.3077,4220,4107.6923,4183.0769,4151.2821,4149.2308,4157.4359,4149.2308,3963.5897,4141.0256
4160,4096.9231,4141.5385,4217.4359,4118.4615,4181.5385,4150.2564,4142.0513,4153.3333,4140.5128,3964.6154,4132.3077
4163.5897,4105.641,4148.2051,4222.0513,4117.4359,4177.9487,4153.3333,4146.6667,4150.2564,4142.0513,3964.1026,4138.4615
4163.0769,4114.8718,4153.8462,4223.0769,4107.6923,4175.3846,4152.8205,4143.5897,4147.1795,4143.5897,3957.4359,4145.641
4158.4615,4102.0513,4141.5385,4217.4359,4117.9487,4176.4103,4152.8205,4134.8718,4138.9744,4139.4872,3952.3077,4140
4158.4615,4095.8974,4138.9744,4218.9744,4127.6923,4174.8718,4153.8462,4141.5385,4138.4615,4143.0769,3956.9231,4136.4103
4167.1795,4116.4103,4154.359,4230.7692,4117.9487,4168.2051,4153.8462,4157.9487,4152.3077,4155.8974,3965.1282,4143.0769
4178.4615,4131.2821,4158.4615,4234.359,4115.3846,4164.6154,4152.3077,4157.9487,4156.4103,4155.8974,3968.7179,4147.6923
4176.4103,4124.6154,4144.6154,4225.1282,4118.9744,4167.1795,4148.2051,4145.641,4144.1026,4144.1026,3968.2051,4143.0769
4171.7949,4121.5385,4142.0513,4219.4872,4113.8462,4172.3077,4147.1795,4143.0769,4143.0769,4144.1026,3968.7179,4140.5128
4170.7692,4126.1538,4148.2051,4217.4359,4106.6667,4171.2821,4151.7949,4148.2051,4147.1795,4148.2051,3964.1026,4136.9231
4161.5385,4127.6923,4143.0769,4214.8718,4125.1282,4173.3333,4152.8205,4152.8205,4144.6154,4147.1795,3956.9231,4133.3333
4157.9487,4123.5897,4141.0256,4220.5128,4125.641,4180,4151.7949,4160,4144.6154,4148.2051,3963.5897,4138.4615
4164.6154,4113.8462,4149.2308,4228.2051,4095.3846,4180.5128,4152.8205,4164.6154,4144.6154,4152.3077,3971.2821,4140.5128
4171.2821,4115.3846,4154.8718,4224.1026,4110.7692,4184.6154,4153.3333,4158.9744,4136.4103,4150.2564,3962.0513,4138.4615
4174.8718,4128.7179,4149.2308,4210.7692,4149.2308,4185.641,4149.2308,4147.1795,4129.2308,4146.1538,3960.5128,4136.4103
4174.359,4133.3333,4149.2308,4212.3077,4140.5128,4177.9487,4144.6154,4144.6154,4136.9231,4151.2821,3976.9231,4141.5385
4169.7436,4132.3077,4155.8974,4237.9487,4116.4103,4170.7692,4143.5897,4151.7949,4146.1538,4157.9487,3983.5897,4150.2564
4161.5385,4129.2308,4147.6923,4243.0769,4116.4103,4163.0769,4141.0256,4148.2051,4130.7692,4148.7179,3969.7436,4144.1026
4161.0256,4126.6667,4135.8974,4220.5128,4120.5128,4157.4359,4137.9487,4143.5897,4120.5128,4140,3964.6154,4136.9231
4162.5641,4123.5897,4133.8462,4219.4872,4118.9744,4156.4103,4135.3846,4150.7692,4130.2564,4142.0513,3970.7692,4137.9487
4154.8718,4112.3077,4134.8718,4232.3077,4106.6667,4150.2564,4130.2564,4157.4359,4127.1795,4141.0256,3967.1795,4133.3333
4143.0769,4098.4615,4132.3077,4218.4615,4100,4146.6667,4125.1282,4157.4359,4116.9231,4137.4359,3964.6154,4126.1538
4150.7692,4102.0513,4135.8974,4213.3333,4112.8205,4160,4125.1282,4154.8718,4122.0513,4143.0769,3970.2564,4130.2564
4173.3333,4124.6154,4147.1795,4241.0256,4124.1026,4172.3077,4129.7436,4153.8462,4131.7949,4153.3333,3979.4872,4146.1538
4173.3333,4132.3077,4143.0769,4240,4135.3846,4170.2564,4132.8205,4148.7179,4130.2564,4149.7436,3983.0769,4150.2564
4161.0256,4120,4134.359,4214.359,4131.7949,4167.6923,4137.9487,4148.7179,4126.1538,4142.0513,3983.0769,4144.6154
4165.641,4116.9231,4138.9744,4217.9487,4116.4103,4169.7436,4142.0513,4154.8718,4125.1282,4146.1538,3989.2308,4148.2051
4167.1795,4121.5385,4140,4223.0769,4120,4173.8462,4141.0256,4150.7692,4115.8974,4148.2051,3987.6923,4149.2308
4161.5385,4125.641,4128.7179,4206.6667,4136.4103,4176.9231,4138.9744,4145.641,4115.8974,4144.6154,3983.5897,4140
4161.5385,4130.2564,4121.0256,4203.0769,4133.3333,4172.3077,4136.4103,4149.2308,4127.1795,4140,3987.1795,4128.7179
4160,4130.2564,4120.5128,4212.8205,4119.4872,4165.641,4134.8718,4148.2051,4126.1538,4135.8974,3990.2564,4123.5897
4157.9487,4132.8205,4122.5641,4210.7692,4121.5385,4170.2564,4134.8718,4148.2051,4122.0513,4137.4359,3992.8205,4129.2308
4160.5128,4140,4128.7179,4210.7692,4126.6667,4176.9231,4137.4359,4150.2564,4130.7692,4145.641,3999.4872,4139.4872
4167.1795,4142.5641,4130.2564,4218.4615,4127.1795,4171.7949,4138.9744,4148.7179,4134.359,4150.2564,4004.6154,4142.0513
4168.7179,4136.9231,4124.6154,4217.9487,4132.8205,4166.6667,4136.4103,4142.0513,4122.5641,4143.5897,3997.4359,4135.3846
4157.9487,4129.7436,4121.0256,4216.9231,4131.2821,4160,4133.8462,4131.7949,4109.7436,4135.8974,3983.5897,4127.6923
4155.8974,4134.359,4123.0769,4217.4359,4124.6154,4157.9487,4136.9231,4131.2821,4108.7179,4134.8718,3980.5128,4124.6154
4162.0513,4138.4615,4124.1026,4214.359,4119.4872,4165.1282,4142.0513,4141.0256,4109.7436,4135.8974,3990.2564,4125.1282
4155.3846,4128.7179,4121.0256,4214.8718,4126.6667,4166.1538,4136.4103,4140.5128,4106.1538,4136.9231,3999.4872,4127.1795
4144.1026,4123.0769,4114.8718,4208.7179,4134.8718,4154.359,4124.6154,4136.9231,4101.5385,4134.8718,3993.3333,4124.6154
4144.1026,4127.6923,4107.6923,4196.4103,4126.6667,4141.0256,4123.5897,4143.5897,4097.9487,4129.7436,3982.0513,4115.3846
4147.1795,4122.5641,4107.1795,4171.7949,4107.1795,4121.0256,4121.5385,4127.6923,4089.2308,4133.8462,3995.8974,4108.7179
4149.2308,4116.9231,4106.6667,4185.1282,4109.2308,4122.5641,4124.1026,4131.7949,4084.1026,4129.2308,3999.4872,4103.5897
4150.7692,4118.9744,4097.9487,4181.0256,4130.2564,4126.1538,4122.5641,4138.9744,4084.1026,4127.1795,3998.4615,4098.4615
4145.1282,4121.5385,4094.8718,4172.3077,4120.5128,4123.5897,4124.6154,4136.9231,4087.1795,4131.2821,4003.0769,4104.6154
4142.5641,4129.7436,4103.5897,4176.9231,4104.6154,4121.5385,4128.2051,4135.3846,4081.5385,4130.7692,4009.7436,4116.4103
4152.3077,4135.8974,4112.3077,4179.4872,4124.6154,4126.1538,4133.3333,4144.1026,4082.5641,4132.8205,4010.7692,4124.6154
4151.2821,4125.641,4106.1538,4175.8974,4140,4125.1282,4134.359,4140,4087.1795,4132.8205,4004.1026,4117.4359
4133.3333,4117.4359,4091.7949,4164.6154,4128.2051,4122.0513,4128.7179,4125.1282,4078.4615,4126.6667,3996.4103,4100
4123.5897,4122.0513,4085.1282,4150.7692,4122.0513,4123.5897,4125.1282,4118.9744,4066.1538,4122.5641,3996.9231,4093.3333
4132.8205,4117.9487,4081.0256,4152.3077,4123.0769,4120.5128,4125.1282,4116.9231,4064.1026,4120,3995.3846,4101.0256
4137.9487,4101.5385,4075.3846,4158.9744,4117.9487,4117.9487,4122.0513,4111.7949,4069.7436,4115.3846,3983.5897,4107.1795
4131.2821,4090.2564,4075.3846,4153.8462,4113.8462,4116.4103,4119.4872,4111.2821,4073.8462,4116.9231,3977.9487,4104.6154
4132.8205,4095.8974,4078.9744,4148.2051,4114.359,4110.2564,4123.0769,4120.5128,4072.3077,4124.6154,3990.2564,4104.6154
4140,4107.6923,4079.4872,4140,4116.9231,4110.7692,4127.1795,4129.7436,4066.6667,4121.5385,4000,4109.2308
4142.0513,4116.4103,4083.0769,4134.359,4112.3077,4114.8718,4127.6923,4127.6923,4068.7179,4120.5128,4003.0769,4113.8462
4145.1282,4123.0769,4093.3333,4140,4102.0513,4109.2308,4125.641,4124.1026,4077.4359,4132.3077,4020,4116.9231
4144.6154,4118.4615,4093.8462,4140,4106.6667,4105.641,4124.6154,4118.9744,4071.7949,4134.8718,4025.641,4116.9231
4137.4359,4114.359,4084.6154,4131.7949,4126.1538,4110.2564,4123.5897,4111.2821,4066.6667,4129.7436,4011.2821,4117.9487
4138.4615,4124.6154,4082.5641,4131.7949,4128.2051,4108.2051,4122.5641,4112.3077,4072.8205,4128.2051,4016.4103,4118.4615
4142.0513,4128.2051,4086.6667,4137.4359,4114.8718,4103.5897,4124.1026,4114.359,4069.2308,4124.6154,4033.8462,4118.9744
4133.8462,4119.4872,4081.5385,4138.9744,4116.4103,4109.2308,4124.1026,4113.8462,4064.1026,4118.9744,4032.8205,4118.9744
4125.641,4114.8718,4073.3333,4138.4615,4121.5385,4112.3077,4123.0769,4112.3077,4065.641,4114.8718,4023.5897,4112.3077
4126.6667,4115.8974,4072.8205,4130.7692,4119.4872,4109.7436,4125.1282,4107.6923,4061.0256,4110.7692,4028.2051,4106.6667
4122.0513,4118.9744,4071.7949,4126.1538,4112.8205,4105.1282,4124.6154,4102.0513,4060,4108.2051,4038.4615,4109.2308
4117.9487,4121.5385,4071.2821,4142.0513,4102.5641,4101.5385,4121.5385,4098.9744,4068.7179,4111.2821,4043.0769,4115.8974
4131.7949,4129.2308,4079.4872,4158.9744,4106.1538,4107.6923,4120.5128,4102.5641,4073.3333,4119.4872,4050.7692,4128.2051
4137.4359,4141.0256,4081.5385,4146.1538,4123.5897,4117.4359,4118.9744,4109.7436,4067.6923,4117.9487,4049.2308,4128.7179
4129.7436,4146.1538,4076.9231,4131.2821,4130.2564,4114.8718,4116.4103,4115.3846,4065.641,4113.3333,4041.0256,4120.5128
4142.5641,4149.7436,4085.1282,4146.6667,4119.4872,4113.3333,4118.9744,4119.4872,4078.9744,4120.5128,4050.2564,4129.2308
4147.6923,4146.1538,4090.7692,4153.3333,4110.7692,4120,4124.6154,4112.8205,4087.1795,4122.5641,4055.3846,4129.7436
4120.5128,4126.1538,4080.5128,4137.4359,4111.2821,4117.9487,4118.4615,4094.359,4073.8462,4108.2051,4034.8718,4110.7692
4108.7179,4106.6667,4072.8205,4130.2564,4103.5897,4108.2051,4106.6667,4080.5128,4058.9744,4093.3333,4020,4104.1026
4132.8205,4117.4359,4078.4615,4134.359,4102.0513,4112.3077,4107.1795,4083.5897,4064.1026,4098.9744,4032.3077,4111.2821
4155.8974,4140.5128,4093.8462,4144.1026,4118.9744,4124.1026,4121.5385,4092.8205,4080.5128,4114.359,4050.7692,4120.5128
4159.4872,4134.8718,4101.0256,4154.8718,4123.5897,4126.6667,4124.6154,4092.3077,4087.6923,4116.4103,4050.2564,4127.1795
4162.5641,4128.2051,4101.0256,4164.1026,4115.3846,4125.641,4112.8205,4088.2051,4090.2564,4113.3333,4044.6154,4128.2051
4161.0256,4129.7436,4103.5897,4163.5897,4110.2564,4121.5385,4107.1795,4087.6923,4094.359,4115.3846,4047.6923,4120.5128
4157.4359,4111.7949,4109.7436,4163.5897,4107.1795,4119.4872,4111.2821,4088.2051,4099.4872,4119.4872,4052.3077,4118.4615
4168.2051,4098.4615,4111.2821,4169.7436,4110.7692,4123.5897,4115.8974,4082.0513,4098.4615,4117.9487,4050.7692,4123.0769
4173.3333,4106.1538,4104.1026,4164.1026,4121.5385,4123.0769,4114.359,4072.3077,4090.2564,4108.2051,4040.5128,4115.8974
4173.3333,4118.9744,4104.1026,4161.5385,4123.5897,4124.6154,4110.7692,4075.8974,4093.8462,4103.5897,4042.5641,4111.7949
4182.5641,4123.0769,4112.3077,4172.3077,4117.4359,4131.2821,4110.2564,4085.1282,4100,4108.7179,4055.3846,4117.4359
4194.359,4121.0256,4115.3846,4179.4872,4113.3333,4134.359,4110.2564,4088.7179,4098.4615,4116.4103,4067.1795,4120.5128
4194.8718,4116.4103,4118.9744,4176.9231,4110.2564,4129.2308,4108.7179,4087.6923,4104.6154,4117.9487,4073.3333,4121.0256
4187.1795,4104.6154,4116.9231,4161.5385,4108.7179,4122.5641,4107.6923,4077.4359,4106.1538,4111.7949,4067.1795,4115.8974
4186.1538,4102.0513,4111.7949,4147.1795,4111.2821,4123.0769,4107.1795,4067.1795,4099.4872,4106.1538,4068.7179,4113.3333
4192.8205,4108.2051,4115.8974,4154.359,4112.3077,4127.1795,4106.6667,4069.2308,4100.5128,4105.1282,4079.4872,4116.4103
4193.8462,4107.6923,4118.4615,4172.3077,4111.2821,4122.5641,4107.1795,4068.7179,4101.5385,4104.1026,4076.4103,4110.2564
4191.7949,4107.6923,4114.8718,4174.8718,4108.2051,4114.359,4107.1795,4058.9744,4099.4872,4104.1026,4068.7179,4104.6154
4191.7949,4099.4872,4117.4359,4171.7949,4096.9231,4117.9487,4106.1538,4058.4615,4098.9744,4102.5641,4073.3333,4104.1026
4194.8718,4092.3077,4117.9487,4176.4103,4093.3333,4125.1282,4105.1282,4067.1795,4098.9744,4102.5641,4078.9744,4100.5128
4199.4872,4103.5897,4110.7692,4175.8974,4115.3846,4124.6154,4105.1282,4072.8205,4100.5128,4106.6667,4078.9744,4104.1026
4204.6154,4119.4872,4116.4103,4171.7949,4123.5897,4121.0256,4108.2051,4071.7949,4102.0513,4114.359,4083.5897,4113.8462
4203.5897,4114.359,4129.2308,4170.2564,4093.3333,4122.5641,4108.2051,4070.7692,4104.1026,4117.9487,4093.8462,4117.9487
4193.8462,4102.0513,4123.5897,4170.2564,4082.5641,4121.5385,4101.5385,4065.641,4101.0256,4109.7436,4089.7436,4111.7949
4193.3333,4100,4111.7949,4172.3077,4106.6667,4111.7949,4098.4615,4054.359,4089.2308,4103.0769,4078.4615,4105.641
4201.5385,4107.1795,4112.8205,4170.2564,4113.8462,4108.7179,4102.5641,4046.1538,4084.6154,4102.5641,4081.5385,4102.5641
4192.8205,4111.2821,4115.8974,4166.1538,4101.0256,4115.3846,4105.641,4050.2564,4088.2051,4098.4615,4083.5897,4095.8974
4181.0256,4104.1026,4110.2564,4172.3077,4097.4359,4119.4872,4102.5641,4058.4615,4084.6154,4093.3333,4078.9744,4091.2821
4183.0769,4102.5641,4104.1026,4183.0769,4092.8205,4117.4359,4101.0256,4051.7949,4074.359,4093.8462,4074.8718,4091.7949
4186.1538,4115.3846,4105.641,4187.6923,4088.7179,4111.7949,4104.6154,4043.0769,4073.3333,4096.9231,4069.7436,4093.8462
4183.5897,4115.3846,4110.2564,4189.7436,4093.3333,4106.1538,4104.1026,4047.1795,4077.9487,4094.359,4063.5897,4090.2564
4186.1538,4109.2308,4117.4359,4201.5385,4101.5385,4110.7692,4104.6154,4052.3077,4082.5641,4096.9231,4067.6923,4091.7949
4205.641,4125.641,4126.6667,4223.5897,4115.3846,4125.1282,4109.7436,4056.9231,4097.4359,4113.8462,4084.6154,4111.2821
4213.3333,4138.9744,4126.1538,4228.7179,4114.359,4127.1795,4110.7692,4055.3846,4108.2051,4118.4615,4088.2051,4120.5128
4201.0256,4126.6667,4121.0256,4212.8205,4109.2308,4119.4872,4106.6667,4044.6154,4109.2308,4111.7949,4081.5385,4115.3846
4197.9487,4122.5641,4123.5897,4209.7436,4109.7436,4120.5128,4106.6667,4040,4113.8462,4115.8974,4089.7436,4116.9231
4197.9487,4129.2308,4123.0769,4217.4359,4093.3333,4117.9487,4108.2051,4041.0256,4108.7179,4118.9744,4097.9487,4116.9231
4192.3077,4126.1538,4114.8718,4210.7692,4091.7949,4112.3077,4107.1795,4040.5128,4091.7949,4113.3333,4088.7179,4108.2051
4190.2564,4122.0513,4112.3077,4204.6154,4116.4103,4115.3846,4108.7179,4038.9744,4086.1538,4110.7692,4078.9744,4104.6154
4188.2051,4128.7179,4114.359,4209.2308,4119.4872,4117.4359,4111.2821,4035.3846,4093.3333,4112.3077,4084.1026,4108.2051
4188.7179,4135.8974,4120,4219.4872,4107.6923,4115.8974,4112.8205,4034.359,4101.0256,4113.8462,4097.9487,4115.8974
4194.359,4132.8205,4121.0256,4221.0256,4111.2821,4120.5128,4112.3077,4036.4103,4100,4113.3333,4102.0513,4116.4103
4188.2051,4128.2051,4113.3333,4210.7692,4115.3846,4122.5641,4110.7692,4034.359,4094.359,4109.2308,4093.8462,4105.1282
4174.359,4125.1282,4110.2564,4204.6154,4113.8462,4117.9487,4108.2051,4030.7692,4092.3077,4102.0513,4087.6923,4100
4180,4126.6667,4118.4615,4205.1282,4117.4359,4117.4359,4105.641,4030.7692,4097.9487,4103.5897,4095.8974,4110.7692
4191.7949,4134.359,4124.1026,4202.5641,4115.3846,4115.8974,4104.6154,4028.7179,4104.1026,4112.3077,4105.641,4117.4359
4187.1795,4137.4359,4116.4103,4205.1282,4106.1538,4106.1538,4104.6154,4024.6154,4098.4615,4110.7692,4098.4615,4109.7436
4181.0256,4136.9231,4111.7949,4212.8205,4101.0256,4105.641,4108.2051,4027.1795,4096.4103,4106.1538,4089.2308,4106.1538
4178.9744,4135.3846,4114.359,4209.7436,4100,4109.7436,4108.7179,4028.7179,4093.8462,4103.0769,4087.6923,4105.641
4173.3333,4134.8718,4112.8205,4207.6923,4103.0769,4107.1795,4104.6154,4018.4615,4082.5641,4097.4359,4084.6154,4097.4359
4180,4145.641,4113.3333,4218.9744,4112.3077,4111.7949,4105.641,4013.8462,4084.6154,4098.4615,4091.2821,4103.5897
4185.1282,4150.2564,4118.9744,4225.1282,4103.5897,4119.4872,4110.7692,4015.3846,4095.3846,4105.641,4103.5897,4112.3077
4171.7949,4137.4359,4116.9231,4221.0256,4089.2308,4112.3077,4107.6923,4009.7436,4094.359,4103.5897,4101.5385,4100.5128
4169.2308,4134.8718,4110.2564,4225.641,4103.5897,4105.641,4102.0513,4009.2308,4092.3077,4097.4359,4095.3846,4096.4103
4184.6154,4149.2308,4116.9231,4241.5385,4120.5128,4113.8462,4107.6923,4017.4359,4102.5641,4105.1282,4102.5641,4112.8205
4188.2051,4153.3333,4120,4242.5641,4112.8205,4116.9231,4108.2051,4017.9487,4105.1282,4112.8205,4108.7179,4117.4359
4172.3077,4136.4103,4104.6154,4225.1282,4105.641,4104.6154,4094.8718,4011.7949,4089.2308,4101.0256,4096.4103,4098.9744
4168.7179,4129.7436,4099.4872,4224.1026,4104.6154,4101.0256,4095.3846,4017.9487,4081.0256,4093.8462,4089.7436,4091.7949
4179.4872,4143.5897,4106.1538,4237.9487,4101.0256,4113.3333,4108.7179,4030.2564,4086.6667,4102.0513,4101.5385,4102.0513
4173.3333,4146.6667,4106.1538,4236.9231,4104.1026,4117.4359,4112.8205,4028.7179,4084.1026,4103.0769,4103.5897,4100.5128
4165.1282,4131.2821,4104.1026,4237.4359,4108.7179,4110.2564,4110.7692,4026.1538,4081.5385,4101.5385,4096.9231,4091.7949
4170.2564,4129.2308,4102.5641,4244.1026,4110.2564,4105.641,4108.7179,4026.1538,4087.1795,4106.6667,4098.9744,4098.4615
4176.9231,4149.2308,4105.1282,4247.6923,4114.359,4107.6923,4109.7436,4028.2051,4092.3077,4114.8718,4106.6667,4116.4103
4178.9744,4159.4872,4117.4359,4248.2051,4113.3333,4110.7692,4118.9744,4043.0769,4091.2821,4116.9231,4111.2821,4125.1282
4173.3333,4149.7436,4118.9744,4237.9487,4111.2821,4106.1538,4120,4051.2821,4088.7179,4110.2564,4109.7436,4112.3077
4163.0769,4148.2051,4106.1538,4223.5897,4109.7436,4098.4615,4107.6923,4040.5128,4089.2308,4104.1026,4104.6154,4096.9231
4157.9487,4152.8205,4100,4217.4359,4102.5641,4092.8205,4103.5897,4036.4103,4085.641,4102.0513,4095.8974,4098.9744
4156.9231,4150.7692,4101.5385,4214.359,4100,4091.2821,4106.6667,4050.2564,4085.1282,4106.1538,4098.9744,4105.1282
4152.3077,4149.2308,4100,4211.2821,4113.3333,4097.4359,4104.6154,4054.359,4092.3077,4108.2051,4112.8205,4098.9744
4148.2051,4151.2821,4093.8462,4208.2051,4109.7436,4099.4872,4102.0513,4043.5897,4087.6923,4105.1282,4110.7692,4090.2564
4152.3077,4160.5128,4094.359,4203.0769,4093.3333,4092.3077,4101.5385,4044.1026,4077.9487,4106.1538,4104.6154,4099.4872
4157.4359,4155.8974,4104.6154,4195.3846,4098.4615,4088.2051,4106.6667,4048.7179,4080,4105.641,4107.6923,4106.6667
4153.3333,4131.2821,4107.1795,4198.9744,4100.5128,4091.7949,4108.2051,4045.1282,4078.9744,4102.0513,4108.2051,4098.4615
4141.5385,4124.1026,4096.4103,4202.5641,4085.1282,4096.9231,4100,4038.9744,4075.8974,4098.9744,4104.6154,4092.3077
4133.8462,4136.9231,4083.0769,4189.7436,4085.1282,4097.4359,4099.4872,4035.3846,4077.4359,4092.3077,4102.0513,4085.1282
4142.0513,4146.6667,4078.4615,4174.8718,4101.5385,4095.8974,4108.7179,4044.6154,4076.9231,4092.3077,4107.6923,4086.6667
4145.641,4145.1282,4080,4173.3333,4109.2308,4097.4359,4112.8205,4055.3846,4072.3077,4098.4615,4111.7949,4093.8462
4145.641,4145.1282,4083.0769,4171.7949,4100.5128,4100.5128,4112.3077,4052.3077,4072.8205,4096.9231,4107.6923,4095.3846
4166.6667,4161.5385,4089.2308,4172.3077,4077.9487,4098.9744,4112.3077,4054.8718,4087.6923,4100,4130.7692,4114.359
4188.2051,4160.5128,4093.8462,4181.0256,4063.5897,4091.7949,4107.6923,4060.5128,4093.3333,4108.2051,4160,4145.1282
4197.9487,4153.8462,4098.4615,4181.5385,4084.6154,4092.3077,4097.9487,4051.2821,4086.1538,4114.359,4157.4359,4171.7949
4217.4359,4190.7692,4107.6923,4176.4103,4112.8205,4098.4615,4089.2308,4044.6154,4093.8462,4121.5385,4158.9744,4200.5128
4241.0256,4228.7179,4121.0256,4186.1538,4105.641,4094.8718,4089.7436,4052.3077,4115.8974,4135.3846,4189.7436,4226.1538
4241.5385,4216.9231,4132.8205,4205.1282,4071.2821,4093.3333,4098.4615,4060,4122.0513,4144.1026,4206.6667,4232.3077
4217.9487,4191.2821,4126.1538,4193.3333,4061.5385,4095.8974,4101.0256,4054.359,4101.5385,4127.1795,4186.6667,4209.7436
4201.5385,4188.2051,4105.1282,4154.8718,4101.0256,4094.359,4100.5128,4045.1282,4086.1538,4104.6154,4158.9744,4183.0769
4200,4194.359,4097.4359,4137.4359,4120,4097.4359,4106.1538,4054.8718,4091.2821,4104.6154,4151.2821,4178.9744
4189.7436,4189.2308,4102.0513,4136.4103,4089.7436,4103.0769,4109.7436,4067.6923,4097.9487,4114.359,4162.5641,4182.0513
4175.3846,4165.641,4097.4359,4125.641,4077.9487,4098.9744,4105.1282,4060.5128,4091.7949,4108.2051,4162.5641,4166.1538
4171.7949,4162.5641,4091.7949,4119.4872,4096.9231,4096.9231,4105.641,4051.7949,4082.5641,4098.4615,4144.1026,4147.6923
4173.8462,4183.0769,4099.4872,4126.6667,4094.359,4107.1795,4112.3077,4064.6154,4090.2564,4107.6923,4146.6667,4157.4359
4169.2308,4180,4103.5897,4115.8974,4083.0769,4110.7692,4110.2564,4070.7692,4103.0769,4115.8974,4167.6923,4169.7436
4160,4169.2308,4100,4084.6154,4093.8462,4106.6667,4103.0769,4058.9744,4097.9487,4112.3077,4163.0769,4162.5641
4157.9487,4178.4615,4099.4872,4068.7179,4115.3846,4110.2564,4104.6154,4055.3846,4087.1795,4107.6923,4148.2051,4155.3846
4157.9487,4182.5641,4097.4359,4070.2564,4115.8974,4113.8462,4109.2308,4059.4872,4088.7179,4102.5641,4151.2821,4149.2308
4149.2308,4171.7949,4093.3333,4068.2051,4095.3846,4111.2821,4111.2821,4063.0769,4089.2308,4100,4157.9487,4138.4615
4134.359,4164.1026,4090.2564,4057.9487,4091.7949,4110.2564,4115.3846,4069.2308,4080.5128,4100,4152.3077,4130.2564
4125.641,4157.9487,4084.6154,4053.3333,4100,4112.3077,4120,4076.4103,4078.9744,4097.4359,4145.1282,4128.2051
4132.3077,4162.5641,4087.1795,4062.5641,4099.4872,4115.3846,4121.5385,4086.6667,4087.1795,4100.5128,4149.7436,4133.8462
4132.8205,4166.1538,4093.8462,4063.5897,4097.9487,4119.4872,4124.6154,4093.8462,4084.1026,4102.5641,4145.1282,4128.7179
4114.359,4146.1538,4087.1795,4042.0513,4106.1538,4124.6154,4126.1538,4091.7949,4069.2308,4094.359,4128.2051,4107.6923
4104.1026,4136.9231,4077.4359,4022.5641,4116.4103,4127.1795,4125.1282,4093.3333,4064.1026,4088.2051,4125.641,4100.5128
4108.2051,4142.5641,4076.4103,4018.9744,4108.7179,4123.0769,4126.1538,4100,4067.1795,4091.7949,4125.641,4109.7436
4111.2821,4136.4103,4080.5128,4016.9231,4098.9744,4118.9744,4129.2308,4106.1538,4075.8974,4101.5385,4117.4359,4111.7949
4105.1282,4117.9487,4082.5641,4008.2051,4097.4359,4117.4359,4127.6923,4106.6667,4082.5641,4102.0513,4116.4103,4106.6667
4097.9487,4113.3333,4083.5897,4006.6667,4106.1538,4114.359,4122.5641,4102.0513,4072.8205,4096.9231,4121.0256,4103.5897
4098.9744,4133.8462,4084.6154,4015.8974,4108.2051,4115.8974,4121.0256,4098.9744,4067.6923,4098.4615,4120.5128,4106.1538
4101.0256,4145.641,4086.6667,4024.6154,4089.7436,4122.0513,4123.5897,4100.5128,4074.8718,4105.641,4127.1795,4112.8205
4109.2308,4137.9487,4092.3077,4033.3333,4091.7949,4127.1795,4124.6154,4107.6923,4084.1026,4107.6923,4140,4120.5128
4118.4615,4133.3333,4094.8718,4033.8462,4113.8462,4125.641,4124.1026,4113.3333,4084.6154,4101.5385,4137.4359,4125.641
4120,4147.6923,4091.7949,4026.1538,4113.3333,4125.1282,4126.6667,4112.3077,4083.5897,4100.5128,4129.7436,4129.7436
4119.4872,4152.3077,4090.7692,4025.1282,4103.0769,4127.1795,4125.1282,4106.1538,4088.7179,4104.1026,4130.7692,4129.2308
4111.7949,4134.8718,4088.7179,4020,4102.5641,4123.5897,4120,4101.5385,4083.5897,4104.1026,4129.2308,4117.4359
4109.2308,4137.9487,4090.7692,4019.4872,4092.3077,4120,4121.5385,4106.1538,4077.4359,4105.641,4134.359,4118.4615
4116.4103,4150.2564,4097.4359,4030.7692,4087.1795,4120,4123.5897,4114.8718,4086.1538,4105.641,4143.5897,4129.7436
4114.8718,4136.4103,4100,4038.4615,4105.1282,4122.0513,4122.5641,4118.4615,4095.8974,4101.5385,4144.1026,4125.1282
4107.1795,4126.6667,4093.3333,4034.359,4115.3846,4123.5897,4121.5385,4115.8974,4090.7692,4102.0513,4141.0256,4118.4615
4111.7949,4133.3333,4081.0256,4025.641,4107.6923,4120.5128,4118.9744,4104.6154,4077.9487,4097.4359,4132.8205,4115.3846
4117.9487,4140,4078.9744,4027.6923,4107.6923,4120,4116.9231,4105.1282,4082.0513,4094.8718,4128.7179,4117.4359
4118.4615,4147.1795,4095.3846,4049.2308,4113.8462,4125.641,4122.0513,4122.0513,4102.0513,4105.641,4138.4615,4130.7692
4114.359,4146.6667,4101.5385,4058.9744,4110.2564,4124.6154,4126.1538,4122.5641,4103.0769,4108.7179,4135.8974,4134.8718
4106.1538,4136.4103,4088.2051,4041.0256,4100.5128,4118.4615,4123.0769,4112.3077,4091.7949,4102.0513,4122.0513,4121.0256
4105.641,4136.4103,4089.7436,4033.8462,4107.1795,4118.9744,4125.1282,4114.359,4096.9231,4103.5897,4121.0256,4116.4103
4123.0769,4149.7436,4109.2308,4043.5897,4111.2821,4123.5897,4130.2564,4118.9744,4114.8718,4113.8462,4133.8462,4137.9487
4133.3333,4152.8205,4112.3077,4041.5385,4090.7692,4126.6667,4128.2051,4114.359,4121.0256,4117.9487,4145.1282,4155.3846
4130.7692,4150.7692,4104.1026,4032.3077,4092.8205,4123.0769,4124.1026,4107.1795,4115.3846,4112.3077,4141.5385,4148.7179
4140.5128,4161.0256,4108.2051,4026.6667,4127.1795,4122.5641,4124.1026,4103.5897,4115.3846,4109.7436,4138.4615,4144.6154
4156.4103,4168.2051,4116.9231,4024.1026,4132.3077,4128.2051,4123.0769,4102.5641,4118.4615,4112.8205,4142.0513,4152.3077
4163.0769,4169.2308,4125.1282,4034.359,4114.8718,4126.6667,4124.6154,4109.7436,4123.0769,4117.4359,4140,4150.7692
4160.5128,4168.2051,4129.7436,4054.359,4120,4123.0769,4129.2308,4113.3333,4124.1026,4116.4103,4134.359,4140
4149.2308,4151.2821,4124.1026,4055.3846,4114.8718,4124.6154,4128.2051,4098.4615,4115.8974,4110.7692,4127.1795,4129.7436
4142.0513,4132.3077,4119.4872,4043.0769,4102.5641,4125.1282,4127.6923,4084.1026,4111.2821,4106.6667,4119.4872,4124.1026
4152.3077,4142.0513,4120.5128,4045.1282,4118.9744,4124.1026,4135.3846,4085.641,4113.3333,4104.1026,4118.4615,4128.2051
4164.6154,4156.4103,4124.6154,4058.4615,4117.9487,4118.9744,4136.9231,4091.7949,4118.4615,4106.6667,4124.1026,4132.3077
4158.9744,4146.6667,4129.2308,4069.7436,4099.4872,4117.4359,4126.1538,4087.1795,4118.9744,4104.1026,4116.4103,4125.1282
4154.359,4135.8974,4123.5897,4071.2821,4110.7692,4123.5897,4116.9231,4075.8974,4110.2564,4094.359,4105.1282,4119.4872
4172.8205,4146.1538,4122.0513,4072.3077,4132.8205,4131.7949,4121.0256,4082.0513,4116.9231,4102.5641,4119.4872,4128.7179
4188.2051,4156.4103,4133.8462,4075.8974,4124.6154,4135.3846,4134.359,4103.5897,4135.3846,4114.8718,4139.4872,4137.9487
4178.9744,4143.0769,4135.8974,4073.8462,4113.8462,4133.8462,4134.359,4107.6923,4133.3333,4110.7692,4135.3846,4131.7949
4173.3333,4133.8462,4130.2564,4074.359,4117.9487,4128.2051,4123.0769,4101.0256,4122.5641,4107.6923,4127.6923,4127.6923
4176.9231,4142.5641,4135.8974,4078.4615,4108.7179,4122.0513,4123.5897,4099.4872,4124.1026,4110.7692,4131.2821,4127.1795
4176.4103,4142.5641,4138.4615,4073.3333,4107.6923,4123.5897,4127.6923,4095.3846,4125.641,4112.3077,4129.7436,4126.1538
4171.2821,4128.7179,4125.1282,4062.5641,4120,4130.2564,4121.5385,4091.7949,4119.4872,4112.3077,4119.4872,4122.0513
4165.641,4116.9231,4116.9231,4064.6154,4114.359,4128.7179,4117.9487,4092.8205,4111.2821,4107.1795,4110.7692,4105.641
4166.6667,4124.6154,4124.1026,4074.8718,4110.2564,4126.1538,4122.5641,4093.8462,4108.2051,4098.9744,4109.7436,4097.9487
4173.3333,4136.4103,4128.2051,4074.8718,4121.0256,4129.7436,4123.5897,4094.359,4113.8462,4102.5641,4120.5128,4115.8974
4181.0256,4144.6154,4131.2821,4078.4615,4124.1026,4132.8205,4123.0769,4099.4872,4123.5897,4116.4103,4137.4359,4141.5385
4188.2051,4147.1795,4142.0513,4091.7949,4111.7949,4129.7436,4122.0513,4101.0256,4125.1282,4119.4872,4136.9231,4145.1282
4186.1538,4138.9744,4146.6667,4100,4110.7692,4131.7949,4121.5385,4094.8718,4121.5385,4117.4359,4126.6667,4137.9487
4184.6154,4131.7949,4143.5897,4102.0513,4128.2051,4141.5385,4122.5641,4092.8205,4122.5641,4117.9487,4135.8974,4141.5385
4179.4872,4129.7436,4135.3846,4097.4359,4130.7692,4137.9487,4116.9231,4086.6667,4115.8974,4111.2821,4141.5385,4128.7179
4177.9487,4137.9487,4128.7179,4093.3333,4119.4872,4128.2051,4112.3077,4080.5128,4109.7436,4106.6667,4129.2308,4110.7692
4187.1795,4149.2308,4133.3333,4103.5897,4120.5128,4133.3333,4118.4615,4081.5385,4115.3846,4108.2051,4126.1538,4120.5128
4187.6923,4141.5385,4136.9231,4116.4103,4114.8718,4136.9231,4124.6154,4085.641,4116.4103,4106.1538,4134.359,4129.7436
4176.4103,4125.641,4130.2564,4113.8462,4095.3846,4127.6923,4124.1026,4091.2821,4107.6923,4101.5385,4130.2564,4120
4169.2308,4122.0513,4120.5128,4101.0256,4103.5897,4123.5897,4123.5897,4093.8462,4101.0256,4098.9744,4115.8974,4111.2821
4172.8205,4133.8462,4123.5897,4102.0513,4132.3077,4131.7949,4124.1026,4095.8974,4106.1538,4104.1026,4116.9231,4114.8718
4178.4615,4148.7179,4133.8462,4123.0769,4129.2308,4134.8718,4124.6154,4103.0769,4122.0513,4112.3077,4138.9744,4124.1026
4178.9744,4154.8718,4138.9744,4144.6154,4116.4103,4128.7179,4123.5897,4112.3077,4127.6923,4117.4359,4148.7179,4129.2308
4181.0256,4161.0256,4142.0513,4158.4615,4125.641,4129.2308,4123.5897,4121.5385,4122.5641,4120,4142.5641,4128.2051
4188.7179,4166.1538,4149.2308,4165.641,4135.3846,4135.3846,4125.641,4120,4114.359,4119.4872,4140,4124.6154
4187.6923,4153.3333,4149.2308,4170.2564,4136.4103,4137.9487,4124.1026,4107.6923,4107.6923,4115.3846,4139.4872,4124.1026
4172.3077,4133.8462,4137.9487,4174.8718,4131.7949,4137.9487,4124.6154,4104.1026,4108.7179,4109.7436,4136.4103,4124.1026
4165.1282,4137.9487,4133.3333,4178.9744,4130.7692,4140,4134.359,4112.3077,4114.8718,4108.7179,4136.9231,4125.1282
4170.7692,4149.7436,4136.9231,4175.3846,4142.5641,4143.0769,4140,4112.3077,4113.8462,4108.2051,4142.0513,4128.2051
4165.641,4138.4615,4133.8462,4167.1795,4139.4872,4141.5385,4138.4615,4098.9744,4106.1538,4102.5641,4138.4615,4126.6667
4165.641,4128.7179,4133.3333,4164.1026,4114.359,4137.9487,4135.8974,4101.5385,4110.2564,4104.6154,4136.9231,4120.5128
4179.4872,4136.4103,4139.4872,4160,4118.4615,4140.5128,4129.7436,4118.9744,4117.9487,4114.8718,4145.641,4118.4615
4177.9487,4146.1538,4143.0769,4160,4138.4615,4144.6154,4123.5897,4123.5897,4118.9744,4121.5385,4153.8462,4121.5385
4173.3333,4156.9231,4149.7436,4173.8462,4132.8205,4143.5897,4123.5897,4115.3846,4127.1795,4127.1795,4161.0256,4134.359
4177.4359,4154.8718,4152.3077,4175.8974,4134.8718,4139.4872,4121.5385,4109.7436,4129.7436,4127.1795,4157.9487,4135.8974
4175.3846,4143.5897,4142.5641,4167.6923,4148.7179,4137.9487,4118.4615,4109.2308,4117.4359,4120,4148.2051,4120.5128
4169.7436,4150.2564,4135.8974,4174.359,4140,4141.0256,4122.5641,4108.7179,4111.7949,4116.9231,4151.2821,4112.3077
4164.6154,4160,4133.8462,4177.4359,4120.5128,4137.4359,4125.1282,4104.1026,4113.8462,4113.8462,4151.2821,4110.7692
4158.4615,4156.9231,4130.7692,4173.8462,4123.0769,4132.3077,4119.4872,4097.9487,4110.2564,4108.7179,4141.0256,4107.6923
4150.2564,4151.2821,4123.5897,4169.2308,4133.8462,4133.8462,4112.3077,4088.2051,4101.0256,4104.6154,4137.9487,4098.4615
4150.2564,4147.1795,4119.4872,4170.7692,4128.7179,4139.4872,4110.7692,4083.5897,4097.4359,4104.6154,4140,4091.2821
4162.0513,4145.641,4128.7179,4180,4123.5897,4140.5128,4110.7692,4096.9231,4106.6667,4112.8205,4142.0513,4100.5128
4161.0256,4141.0256,4134.359,4171.7949,4126.1538,4137.9487,4108.2051,4099.4872,4109.7436,4114.8718,4141.5385,4102.0513
4141.0256,4140.5128,4121.5385,4146.6667,4127.1795,4137.9487,4106.6667,4081.0256,4094.8718,4105.1282,4133.3333,4084.6154
4129.7436,4147.1795,4107.6923,4141.0256,4124.6154,4139.4872,4105.1282,4076.4103,4088.7179,4098.4615,4128.2051,4077.4359
4134.359,4143.5897,4104.6154,4148.2051,4130.7692,4135.8974,4104.1026,4083.5897,4096.9231,4101.0256,4135.8974,4086.6667
4137.4359,4137.9487,4107.6923,4141.0256,4128.2051,4130.7692,4105.641,4087.6923,4102.0513,4103.5897,4150.7692,4092.3077
4136.4103,4145.641,4114.8718,4142.5641,4112.3077,4129.2308,4104.6154,4093.8462,4103.0769,4107.1795,4163.5897,4094.8718
4132.8205,4148.2051,4114.8718,4149.2308,4110.2564,4128.2051,4098.9744,4094.8718,4101.0256,4109.7436,4162.5641,4092.8205
4130.2564,4143.5897,4107.1795,4143.5897,4110.7692,4128.2051,4095.3846,4089.7436,4092.3077,4103.5897,4146.1538,4085.1282
4137.9487,4150.7692,4115.8974,4150.2564,4104.1026,4129.7436,4098.9744,4098.9744,4095.8974,4104.6154,4144.6154,4085.641
4146.6667,4151.2821,4128.7179,4158.9744,4108.2051,4131.2821,4097.9487,4116.9231,4113.3333,4115.3846,4161.5385,4094.8718
4145.641,4142.0513,4122.5641,4152.3077,4118.9744,4132.8205,4096.9231,4119.4872,4118.9744,4118.4615,4164.1026,4102.5641
4144.1026,4152.8205,4118.9744,4152.3077,4122.5641,4132.8205,4102.5641,4117.4359,4122.0513,4121.5385,4161.0256,4116.9231
4147.6923,4164.1026,4125.641,4152.8205,4110.7692,4127.6923,4104.1026,4121.0256,4127.1795,4125.641,4164.1026,4125.1282
4143.0769,4151.7949,4119.4872,4137.9487,4101.0256,4123.5897,4096.4103,4115.8974,4111.2821,4118.9744,4150.2564,4108.7179
4136.9231,4143.5897,4111.7949,4131.7949,4108.2051,4125.641,4094.359,4112.8205,4099.4872,4111.7949,4141.5385,4099.4872
4134.8718,4141.0256,4112.8205,4129.2308,4108.7179,4123.5897,4094.8718,4117.9487,4103.0769,4109.2308,4149.2308,4101.0256
4127.1795,4130.2564,4107.6923,4114.359,4097.9487,4120.5128,4089.7436,4117.9487,4097.9487,4107.6923,4141.5385,4091.2821
4124.1026,4131.2821,4098.9744,4104.1026,4104.6154,4122.5641,4092.8205,4111.7949,4089.7436,4110.7692,4128.7179,4086.6667
4132.3077,4138.9744,4101.5385,4106.1538,4109.7436,4119.4872,4103.0769,4111.7949,4092.8205,4114.359,4141.0256,4094.8718
4135.8974,4138.4615,4111.7949,4111.7949,4097.9487,4111.2821,4102.5641,4120,4100.5128,4119.4872,4152.3077,4106.1538
