"AF3","F7","F3","FC5","T7","P7","O1","O2","FC6","F4","F8","AF4"
4066.1538,4077.4359,4097.4359,4071.2821,4094.359,4089.7436,4111.2821,4081.5385,4095.8974,4072.3077,4049.7436,4069.2308
4083.0769,4088.7179,4102.0513,4071.7949,4091.2821,4086.1538,4117.4359,4080.5128,4103.5897,4076.4103,4053.3333,4079.4872
4086.1538,4094.8718,4108.7179,4071.7949,4063.0769,4074.8718,4116.9231,4081.0256,4104.6154,4082.0513,4065.641,4086.6667
4077.9487,4094.8718,4107.1795,4069.7436,4081.0256,4086.1538,4114.8718,4077.4359,4103.0769,4081.0256,4068.7179,4078.4615
4074.8718,4094.359,4102.5641,4072.3077,4113.8462,4099.4872,4120.5128,4075.8974,4107.6923,4079.4872,4070.7692,4070.7692
4076.9231,4102.5641,4107.6923,4070.2564,4109.2308,4097.9487,4125.641,4085.1282,4111.7949,4082.5641,4078.9744,4078.4615
4083.0769,4097.4359,4114.8718,4062.0513,4098.9744,4095.3846,4123.5897,4092.8205,4110.2564,4088.7179,4077.9487,4088.2051
4092.8205,4084.6154,4111.7949,4062.5641,4098.4615,4097.9487,4122.5641,4095.3846,4113.3333,4093.8462,4081.0256,4088.7179
4089.2308,4086.6667,4109.2308,4066.1538,4095.3846,4093.3333,4120,4096.9231,4107.1795,4092.8205,4089.7436,4085.641
4077.4359,4093.3333,4111.2821,4059.4872,4107.6923,4087.6923,4110.7692,4091.7949,4095.3846,4089.7436,4085.1282,4087.6923
4085.1282,4095.3846,4114.359,4062.0513,4100.5128,4090.7692,4110.7692,4085.1282,4105.1282,4094.8718,4087.6923,4101.0256
4097.4359,4092.8205,4120.5128,4074.359,4070.7692,4089.7436,4116.9231,4089.2308,4117.4359,4099.4872,4097.4359,4101.5385
4089.2308,4089.2308,4119.4872,4071.2821,4087.1795,4086.1538,4108.2051,4088.7179,4109.2308,4092.3077,4086.1538,4084.1026
4075.8974,4089.7436,4113.8462,4061.5385,4112.8205,4084.1026,4096.9231,4076.9231,4101.5385,4083.0769,4080.5128,4076.9231
4075.3846,4094.359,4117.4359,4055.8974,4088.2051,4080.5128,4096.9231,4071.2821,4104.1026,4085.641,4084.6154,4087.6923
4077.9487,4087.1795,4117.9487,4045.1282,4072.8205,4079.4872,4097.4359,4078.4615,4109.7436,4089.2308,4076.4103,4089.2308
4074.8718,4067.6923,4104.6154,4033.8462,4087.1795,4076.9231,4094.359,4076.9231,4112.8205,4085.1282,4061.0256,4071.2821
4087.1795,4074.359,4102.5641,4037.4359,4084.6154,4079.4872,4096.9231,4074.8718,4109.7436,4086.1538,4064.1026,4068.2051
4104.1026,4096.9231,4112.3077,4049.7436,4075.8974,4084.6154,4100,4080.5128,4110.7692,4093.3333,4079.4872,4079.4872
4094.8718,4094.8718,4109.7436,4048.7179,4089.7436,4084.1026,4101.0256,4080,4112.3077,4090.2564,4071.2821,4072.3077
4085.1282,4086.1538,4101.0256,4044.1026,4098.4615,4090.2564,4107.6923,4082.5641,4114.359,4083.0769,4065.1282,4067.1795
4086.1538,4085.641,4098.9744,4044.6154,4084.6154,4097.4359,4108.7179,4082.5641,4111.2821,4082.0513,4077.4359,4076.4103
4082.5641,4084.6154,4103.0769,4042.5641,4088.7179,4094.359,4101.5385,4073.8462,4109.7436,4080,4085.641,4083.5897
4082.5641,4092.8205,4104.1026,4035.8974,4103.5897,4088.2051,4095.8974,4070.2564,4113.3333,4070.2564,4082.5641,4085.1282
4089.7436,4102.5641,4103.0769,4037.9487,4088.7179,4083.0769,4093.8462,4070.2564,4110.2564,4070.2564,4079.4872,4081.5385
4100,4112.3077,4109.7436,4053.8462,4083.5897,4083.5897,4095.3846,4077.4359,4118.4615,4081.0256,4086.6667,4088.7179
4097.4359,4110.7692,4115.3846,4061.0256,4094.8718,4083.5897,4093.3333,4080.5128,4125.641,4078.9744,4082.5641,4092.8205
4074.8718,4085.641,4104.6154,4050.2564,4075.8974,4075.8974,4090.2564,4068.7179,4112.3077,4066.1538,4069.2308,4076.9231
4075.3846,4074.8718,4098.9744,4043.5897,4066.1538,4080,4095.8974,4071.7949,4105.641,4067.6923,4080,4080
4100,4092.8205,4109.2308,4047.6923,4096.4103,4094.359,4105.641,4087.6923,4114.359,4076.4103,4094.359,4098.9744
4102.5641,4096.4103,4113.8462,4051.7949,4103.0769,4097.4359,4107.6923,4090.2564,4114.8718,4074.8718,4076.9231,4097.4359
4086.6667,4074.359,4113.3333,4050.7692,4082.5641,4087.6923,4106.1538,4085.1282,4103.0769,4069.2308,4062.0513,4090.7692
4089.7436,4070.2564,4118.9744,4049.2308,4088.2051,4087.6923,4108.7179,4091.7949,4107.6923,4075.3846,4090.7692,4106.1538
4097.9487,4080,4119.4872,4048.7179,4101.0256,4095.3846,4110.2564,4100,4129.2308,4083.0769,4118.9744,4123.0769
4086.1538,4070.2564,4113.8462,4050.7692,4092.3077,4095.3846,4104.6154,4094.359,4135.8974,4078.4615,4103.5897,4116.9231
4089.2308,4063.5897,4116.9231,4055.3846,4093.3333,4101.5385,4102.5641,4092.8205,4135.8974,4083.5897,4089.7436,4116.4103
4098.9744,4067.1795,4114.359,4057.9487,4112.3077,4103.0769,4103.0769,4087.6923,4130.2564,4097.4359,4091.7949,4124.6154
4091.7949,4057.4359,4102.5641,4057.4359,4106.1538,4087.6923,4094.359,4070.7692,4113.8462,4098.9744,4084.1026,4116.9231
4090.2564,4047.6923,4104.6154,4058.9744,4087.1795,4089.2308,4088.2051,4065.641,4120.5128,4095.3846,4071.2821,4112.8205
4094.359,4052.3077,4115.3846,4063.5897,4088.7179,4095.3846,4092.3077,4071.7949,4132.3077,4099.4872,4060.5128,4120
4091.7949,4059.4872,4114.8718,4073.8462,4101.5385,4085.1282,4096.9231,4078.9744,4121.5385,4099.4872,4075.3846,4121.5385
4096.4103,4057.4359,4111.7949,4079.4872,4109.2308,4088.7179,4097.4359,4078.9744,4119.4872,4090.2564,4092.8205,4113.3333
4112.3077,4056.9231,4119.4872,4078.9744,4105.641,4108.7179,4105.641,4081.5385,4131.7949,4092.8205,4074.359,4118.9744
4116.9231,4066.6667,4124.1026,4083.5897,4110.7692,4116.9231,4120,4094.8718,4132.8205,4096.4103,4072.3077,4136.4103
4106.6667,4073.8462,4112.3077,4076.4103,4113.8462,4110.7692,4118.4615,4095.3846,4122.0513,4089.2308,4097.4359,4130.2564
4109.7436,4084.6154,4105.1282,4065.641,4094.359,4109.7436,4110.2564,4086.1538,4124.6154,4089.2308,4104.6154,4118.9744
4114.359,4086.6667,4113.3333,4077.9487,4083.0769,4114.8718,4115.8974,4091.7949,4134.359,4094.359,4092.3077,4124.6154
4103.0769,4066.1538,4116.9231,4088.2051,4106.1538,4115.3846,4121.5385,4098.4615,4133.8462,4092.8205,4087.6923,4125.641
4114.8718,4076.4103,4116.4103,4086.1538,4136.4103,4115.3846,4116.4103,4094.8718,4133.3333,4093.3333,4098.9744,4137.4359
4137.4359,4104.1026,4121.0256,4085.641,4126.1538,4108.2051,4111.7949,4094.8718,4132.3077,4095.3846,4109.2308,4152.3077
4129.7436,4096.4103,4124.6154,4085.1282,4110.2564,4104.1026,4113.3333,4099.4872,4130.2564,4094.8718,4104.1026,4150.7692
4124.1026,4092.8205,4133.3333,4086.6667,4115.8974,4110.7692,4115.8974,4103.0769,4137.4359,4098.4615,4101.5385,4157.4359
4131.7949,4104.6154,4138.9744,4086.6667,4121.0256,4110.2564,4112.3077,4095.8974,4136.4103,4096.4103,4102.0513,4162.5641
4126.6667,4096.4103,4131.2821,4078.9744,4118.4615,4106.1538,4102.5641,4082.5641,4132.3077,4088.7179,4101.5385,4155.8974
4120.5128,4082.0513,4126.6667,4074.359,4095.8974,4108.7179,4097.9487,4074.359,4134.359,4087.6923,4107.1795,4150.7692
4124.6154,4077.4359,4124.6154,4075.3846,4090.2564,4111.7949,4099.4872,4078.4615,4134.359,4086.1538,4091.2821,4147.6923
4124.6154,4077.9487,4117.9487,4079.4872,4107.6923,4107.1795,4099.4872,4085.1282,4130.2564,4083.5897,4061.0256,4141.5385
4114.8718,4070.7692,4116.9231,4084.6154,4095.3846,4096.4103,4094.359,4079.4872,4118.4615,4082.5641,4063.0769,4124.6154
4111.7949,4067.6923,4118.4615,4080.5128,4091.2821,4097.9487,4093.8462,4078.9744,4112.3077,4082.0513,4081.5385,4113.3333
4108.7179,4074.8718,4108.7179,4067.6923,4109.2308,4105.1282,4097.4359,4080,4109.2308,4077.4359,4071.7949,4118.4615
4101.0256,4084.6154,4101.5385,4069.2308,4102.0513,4106.1538,4098.9744,4072.8205,4108.2051,4076.4103,4058.4615,4122.5641
4109.2308,4087.6923,4109.2308,4077.9487,4090.7692,4106.1538,4100,4073.3333,4110.2564,4080,4067.6923,4120.5128
4117.4359,4074.8718,4117.9487,4078.4615,4089.7436,4098.4615,4098.9744,4077.9487,4111.2821,4087.1795,4071.7949,4116.9231
4112.3077,4072.8205,4122.5641,4075.8974,4093.3333,4093.8462,4097.9487,4080,4114.8718,4093.8462,4078.9744,4117.4359
4110.7692,4085.1282,4128.7179,4069.7436,4098.4615,4097.9487,4092.8205,4083.0769,4120.5128,4092.8205,4084.6154,4119.4872
4121.0256,4086.6667,4130.2564,4057.9487,4097.4359,4101.5385,4091.2821,4089.2308,4125.1282,4089.7436,4071.7949,4121.0256
4131.7949,4080,4126.6667,4053.3333,4099.4872,4108.7179,4098.9744,4093.8462,4128.7179,4091.7949,4073.8462,4122.5641
4117.9487,4070.7692,4122.0513,4053.8462,4103.5897,4108.2051,4102.5641,4090.2564,4122.0513,4086.6667,4079.4872,4114.359
4095.3846,4073.8462,4112.8205,4048.2051,4103.0769,4100,4097.4359,4083.0769,4114.8718,4076.4103,4063.0769,4108.2051
4096.9231,4082.5641,4106.1538,4042.5641,4097.4359,4102.0513,4094.359,4078.9744,4113.8462,4075.3846,4052.8205,4106.6667
4109.2308,4073.3333,4110.7692,4049.2308,4093.8462,4108.7179,4098.9744,4078.4615,4113.3333,4082.5641,4068.7179,4104.6154
4110.2564,4070.2564,4118.9744,4062.5641,4096.9231,4101.5385,4096.4103,4087.1795,4115.3846,4087.6923,4075.3846,4108.2051
4094.359,4084.1026,4118.9744,4056.9231,4108.7179,4094.359,4088.7179,4089.7436,4107.1795,4086.6667,4057.9487,4098.9744
4077.9487,4060,4122.5641,4057.4359,4105.1282,4102.5641,4091.7949,4076.4103,4098.4615,4086.1538,4042.0513,4083.0769
4080,4021.0256,4130.7692,4067.6923,4084.6154,4100.5128,4092.8205,4066.1538,4094.8718,4087.1795,4030.2564,4092.3077
4097.4359,4032.3077,4122.0513,4045.641,4090.7692,4088.7179,4086.1538,4067.6923,4091.2821,4092.3077,4034.359,4110.7692
4090.7692,4038.4615,4128.2051,4047.6923,4098.4615,4094.8718,4090.7692,4078.9744,4096.9231,4096.4103,4056.4103,4095.3846
4060.5128,4004.1026,4147.6923,4077.9487,4092.3077,4107.6923,4100,4082.0513,4095.3846,4090.7692,4045.641,4081.0256
4087.6923,4040.5128,4138.4615,4047.1795,4115.8974,4111.2821,4102.0513,4093.8462,4115.3846,4099.4872,4057.9487,4139.4872
4146.1538,4115.8974,4122.5641,3994.8718,4146.1538,4111.7949,4110.7692,4124.1026,4138.4615,4120,4107.1795,4202.5641
4147.1795,4096.9231,4135.3846,4010.2564,4133.8462,4107.6923,4114.359,4122.0513,4118.4615,4122.5641,4111.7949,4212.3077
4137.9487,4038.9744,4159.4872,4046.6667,4107.1795,4101.0256,4109.2308,4104.6154,4125.641,4120.5128,4126.6667,4262.5641
4170.2564,4033.8462,4168.2051,4044.6154,4117.9487,4104.6154,4112.8205,4106.6667,4172.3077,4132.8205,4190.2564,4361.5385
4193.8462,4052.8205,4172.3077,4045.641,4127.1795,4114.8718,4118.4615,4105.1282,4166.1538,4138.4615,4220,4415.8974
4180,4022.0513,4176.4103,4052.8205,4100.5128,4111.7949,4115.3846,4089.7436,4129.2308,4130.2564,4227.1795,4427.1795
4179.4872,3972.8205,4173.3333,4027.1795,4096.4103,4096.9231,4114.359,4081.5385,4137.4359,4133.8462,4270.7692,4448.2051
4204.1026,4004.1026,4163.0769,3981.5385,4149.2308,4103.0769,4123.0769,4090.7692,4150.7692,4148.2051,4325.1282,4490.2564
4208.2051,4057.4359,4157.4359,3959.4872,4166.6667,4116.9231,4129.2308,4102.5641,4145.641,4154.359,4369.7436,4523.5897
4180.5128,4023.0769,4169.7436,3982.0513,4117.9487,4111.2821,4133.3333,4113.8462,4152.3077,4152.8205,4409.7436,4521.5385
4146.1538,3942.5641,4166.6667,3975.8974,4107.6923,4098.4615,4128.2051,4112.3077,4140.5128,4141.0256,4430.7692,4493.8462
4126.6667,3929.2308,4134.8718,3922.0513,4133.3333,4095.3846,4116.9231,4101.5385,4119.4872,4126.1538,4467.1795,4481.5385
4136.4103,3971.7949,4120.5128,3905.1282,4139.4872,4103.5897,4115.3846,4106.1538,4131.2821,4132.3077,4524.6154,4506.6667
4143.0769,3983.5897,4134.359,3913.8462,4121.0256,4101.5385,4109.7436,4108.7179,4136.4103,4137.9487,4538.9744,4515.3846
4120,3947.1795,4138.9744,3889.2308,4103.5897,4088.7179,4098.4615,4101.5385,4116.4103,4127.1795,4531.7949,4480.5128
4100,3912.8205,4129.7436,3868.2051,4113.3333,4087.6923,4098.9744,4104.6154,4120.5128,4125.1282,4561.5385,4464.6154
4082.5641,3909.2308,4123.0769,3869.7436,4129.7436,4090.7692,4097.4359,4106.1538,4122.0513,4128.2051,4580,4480
4081.5385,3937.4359,4125.641,3861.5385,4133.3333,4085.641,4092.8205,4104.1026,4105.1282,4133.8462,4570.7692,4497.9487
4101.0256,3946.6667,4126.6667,3846.6667,4117.9487,4077.4359,4096.4103,4109.7436,4111.7949,4142.0513,4568.7179,4510.2564
4085.641,3898.9744,4112.8205,3827.6923,4110.2564,4078.9744,4099.4872,4108.2051,4112.3077,4131.7949,4555.3846,4495.8974
4053.8462,3886.1538,4100,3804.6154,4131.7949,4089.7436,4095.8974,4098.9744,4093.3333,4115.3846,4533.8462,4472.8205
4032.3077,3917.4359,4095.8974,3785.1282,4145.1282,4084.1026,4093.8462,4099.4872,4085.641,4113.3333,4517.4359,4466.1538
4024.6154,3918.9744,4099.4872,3787.1795,4118.4615,4073.8462,4096.4103,4116.4103,4095.8974,4119.4872,4513.3333,4485.641
4025.1282,3892.3077,4108.7179,3802.0513,4101.0256,4079.4872,4097.4359,4128.2051,4100.5128,4126.1538,4506.1538,4502.5641
3997.4359,3862.5641,4103.5897,3787.1795,4126.1538,4083.5897,4095.3846,4114.8718,4089.2308,4123.5897,4461.5385,4483.0769
3964.1026,3865.1282,4088.7179,3756.4103,4147.6923,4081.0256,4098.9744,4094.359,4081.5385,4113.8462,4417.4359,4476.4103
3973.3333,3903.5897,4085.641,3761.5385,4151.7949,4081.5385,4103.5897,4087.6923,4087.1795,4113.8462,4406.6667,4502.0513
3986.6667,3906.1538,4095.8974,3791.7949,4140.5128,4084.1026,4101.5385,4088.7179,4101.0256,4125.641,4391.7949,4513.8462
3951.7949,3845.1282,4099.4872,3790.2564,4118.9744,4083.0769,4091.7949,4078.4615,4099.4872,4121.0256,4348.7179,4492.3077
3933.8462,3825.641,4088.2051,3750.7692,4126.1538,4077.9487,4087.1795,4070.7692,4091.7949,4106.6667,4320,4485.1282
3961.0256,3875.3846,4078.4615,3730.2564,4167.1795,4080,4095.8974,4089.2308,4109.2308,4110.2564,4316.9231,4504.1026
3961.5385,3878.4615,4082.0513,3742.5641,4153.8462,4087.6923,4104.6154,4104.6154,4125.641,4116.4103,4302.5641,4502.5641
3930.2564,3833.3333,4082.0513,3735.3846,4104.6154,4090.7692,4108.7179,4100.5128,4121.5385,4108.7179,4279.4872,4482.0513
3922.5641,3839.4872,4067.6923,3713.8462,4120,4091.2821,4114.8718,4100,4115.8974,4098.9744,4256.9231,4475.3846
3943.0769,3878.4615,4068.2051,3729.7436,4156.9231,4087.1795,4117.9487,4106.6667,4118.9744,4099.4872,4243.5897,4496.4103
3953.8462,3882.5641,4082.5641,3750.7692,4144.1026,4083.5897,4115.8974,4110.2564,4127.6923,4100,4244.6154,4507.6923
3945.1282,3861.5385,4077.9487,3740.5128,4120.5128,4082.0513,4114.359,4101.5385,4122.5641,4093.3333,4237.9487,4485.641
3943.5897,3853.3333,4065.641,3732.8205,4118.4615,4075.3846,4107.1795,4091.7949,4108.2051,4094.359,4218.4615,4483.0769
3947.6923,3852.8205,4068.7179,3732.3077,4116.9231,4064.1026,4096.9231,4084.6154,4109.7436,4096.4103,4208.2051,4494.8718
3934.8718,3846.6667,4067.6923,3728.2051,4118.9744,4060.5128,4094.359,4066.1538,4114.359,4089.2308,4196.4103,4473.3333
3928.7179,3861.0256,4060.5128,3734.8718,4135.8974,4069.7436,4098.4615,4058.4615,4114.359,4085.641,4184.1026,4453.3333
3946.6667,3888.7179,4063.0769,3742.0513,4128.7179,4071.7949,4101.5385,4071.7949,4120,4090.2564,4183.5897,4463.5897
3947.6923,3883.5897,4070.7692,3743.0769,4100,4065.641,4100,4074.8718,4122.0513,4094.359,4176.4103,4465.641
3928.2051,3849.2308,4071.7949,3745.641,4094.359,4063.0769,4097.4359,4062.5641,4116.9231,4088.2051,4160,4449.7436
3934.8718,3847.6923,4067.6923,3744.6154,4107.6923,4062.0513,4097.9487,4060,4119.4872,4085.1282,4150.2564,4441.0256
3967.6923,3881.5385,4069.7436,3746.1538,4107.1795,4060,4098.9744,4074.8718,4133.8462,4094.8718,4158.9744,4446.6667
3971.7949,3882.5641,4072.8205,3751.7949,4087.6923,4059.4872,4097.9487,4079.4872,4130.7692,4096.9231,4159.4872,4447.6923
3952.8205,3856.4103,4066.6667,3754.359,4084.1026,4066.6667,4098.4615,4069.2308,4114.8718,4083.5897,4144.6154,4436.4103
3953.8462,3854.8718,4064.6154,3758.9744,4097.9487,4065.641,4093.8462,4067.1795,4117.4359,4078.9744,4145.1282,4429.2308
3974.8718,3877.4359,4076.4103,3772.3077,4083.0769,4047.6923,4088.7179,4072.8205,4130.7692,4087.6923,4153.8462,4426.6667
3992.8205,3897.4359,4083.5897,3787.6923,4082.0513,4047.1795,4094.8718,4073.8462,4129.7436,4090.2564,4145.641,4419.4872
3986.6667,3896.9231,4071.7949,3790.7692,4099.4872,4061.5385,4094.8718,4065.1282,4118.4615,4085.1282,4120.5128,4404.6154
3977.9487,3894.359,4069.2308,3795.8974,4088.7179,4062.5641,4089.7436,4059.4872,4124.6154,4083.5897,4098.4615,4392.8205
3993.3333,3912.8205,4085.641,3809.7436,4089.7436,4061.0256,4099.4872,4066.6667,4143.0769,4091.7949,4095.8974,4395.8974
4004.6154,3917.9487,4087.6923,3806.1538,4110.2564,4063.0769,4106.1538,4075.8974,4149.7436,4097.9487,4094.359,4384.1026
3998.4615,3903.0769,4076.9231,3789.7436,4092.8205,4058.9744,4097.9487,4082.0513,4160.5128,4101.0256,4089.2308,4359.4872
4000.5128,3909.2308,4082.0513,3795.8974,4068.2051,4056.4103,4091.7949,4081.5385,4168.2051,4099.4872,4084.6154,4356.9231
4015.3846,3936.4103,4087.1795,3813.8462,4095.3846,4051.7949,4088.7179,4068.7179,4150.2564,4096.9231,4072.8205,4352.3077
4031.7949,3954.8718,4082.5641,3822.0513,4110.7692,4046.6667,4085.641,4064.6154,4143.0769,4101.5385,4069.7436,4337.4359
4031.2821,3943.0769,4084.6154,3826.1538,4091.2821,4046.1538,4086.1538,4067.1795,4155.3846,4109.2308,4077.9487,4340.5128
4032.3077,3930.7692,4090.7692,3833.3333,4095.3846,4055.3846,4090.7692,4061.0256,4155.8974,4113.3333,4084.1026,4349.2308
4052.8205,3954.359,4089.2308,3843.0769,4098.9744,4062.0513,4098.4615,4055.8974,4151.2821,4115.3846,4088.2051,4335.8974
4059.4872,3980,4087.1795,3852.8205,4077.9487,4057.9487,4104.6154,4062.0513,4155.8974,4115.3846,4093.8462,4322.5641
4045.1282,3976.4103,4088.2051,3865.1282,4073.8462,4058.4615,4101.5385,4067.6923,4154.359,4109.2308,4088.2051,4327.6923
4040,3970.7692,4080,3858.9744,4091.2821,4065.1282,4092.8205,4060.5128,4136.4103,4100,4065.641,4315.3846
4050.2564,3990.7692,4072.8205,3846.6667,4103.0769,4065.1282,4096.4103,4061.5385,4132.3077,4101.0256,4073.8462,4302.0513
4054.359,4003.5897,4081.0256,3861.0256,4106.6667,4053.8462,4098.4615,4070.7692,4145.641,4103.5897,4098.9744,4306.1538
4056.9231,3991.7949,4087.1795,3889.7436,4098.4615,4050.2564,4094.359,4069.2308,4143.5897,4104.1026,4089.7436,4300.5128
4070.7692,3988.7179,4086.1538,3900,4085.641,4057.9487,4096.9231,4067.6923,4137.4359,4105.641,4081.5385,4290.7692
4072.8205,3990.7692,4083.0769,3886.6667,4075.8974,4055.3846,4096.4103,4064.1026,4132.8205,4104.1026,4085.641,4290.7692
4075.3846,3997.4359,4081.5385,3879.4872,4081.0256,4052.3077,4090.2564,4055.8974,4122.0513,4103.5897,4076.9231,4292.3077
4087.1795,4017.4359,4083.0769,3893.8462,4090.2564,4059.4872,4094.359,4053.8462,4113.3333,4105.1282,4073.8462,4281.0256
4082.5641,4013.8462,4087.1795,3910.2564,4080.5128,4056.4103,4093.3333,4049.7436,4110.7692,4105.1282,4076.9231,4254.8718
4071.7949,4002.0513,4083.0769,3906.6667,4083.0769,4046.1538,4080,4040,4113.8462,4103.0769,4068.2051,4245.641
4076.9231,4012.8205,4075.3846,3888.7179,4090.7692,4047.1795,4082.0513,4042.5641,4109.2308,4105.1282,4058.9744,4255.3846
4083.0769,4012.8205,4070.7692,3884.1026,4078.4615,4054.359,4092.8205,4057.4359,4100.5128,4107.6923,4057.4359,4246.1538
4087.6923,4004.1026,4065.641,3907.6923,4069.2308,4053.3333,4084.6154,4067.1795,4098.4615,4104.6154,4058.4615,4226.6667
4092.3077,4020.5128,4066.6667,3934.359,4066.6667,4045.1282,4075.8974,4070.2564,4096.9231,4104.6154,4058.4615,4225.641
4085.641,4034.8718,4070.7692,3934.359,4067.6923,4046.6667,4080,4066.1538,4086.6667,4106.6667,4051.2821,4228.2051
4076.9231,4015.3846,4063.0769,3923.0769,4084.1026,4052.3077,4074.8718,4048.2051,4072.3077,4100.5128,4036.9231,4210.7692
4085.641,4014.359,4060,3932.8205,4088.7179,4052.3077,4070.7692,4041.5385,4075.8974,4101.5385,4039.4872,4196.9231
4113.8462,4055.3846,4082.0513,3970.2564,4072.3077,4064.1026,4092.8205,4067.6923,4108.2051,4123.0769,4065.641,4221.5385
4126.1538,4069.2308,4098.9744,4002.0513,4076.4103,4083.5897,4112.3077,4083.5897,4125.641,4138.9744,4078.9744,4240
4122.0513,4062.5641,4098.4615,4001.5385,4098.9744,4091.2821,4109.7436,4074.8718,4124.1026,4137.4359,4080,4223.0769
4133.3333,4083.5897,4100,3995.3846,4110.7692,4095.8974,4110.7692,4082.0513,4133.3333,4135.3846,4080,4214.8718
4142.5641,4098.9744,4100.5128,4011.2821,4105.1282,4099.4872,4115.3846,4098.9744,4136.4103,4134.8718,4073.3333,4224.6154
4141.5385,4092.8205,4098.9744,4026.6667,4102.5641,4087.6923,4108.2051,4100,4130.7692,4134.359,4080,4218.9744
4147.6923,4096.4103,4102.5641,4031.7949,4093.8462,4074.359,4107.1795,4090.2564,4133.3333,4136.4103,4097.4359,4203.5897
4157.9487,4114.359,4111.7949,4055.3846,4081.0256,4088.7179,4121.0256,4093.8462,4145.641,4142.5641,4108.2051,4211.7949
4155.3846,4116.9231,4118.4615,4084.1026,4100.5128,4108.7179,4125.641,4100,4147.6923,4144.6154,4105.1282,4222.0513
4159.4872,4103.5897,4123.0769,4093.3333,4119.4872,4102.5641,4122.0513,4091.7949,4137.9487,4147.6923,4103.5897,4211.7949
4171.2821,4114.359,4126.1538,4088.2051,4121.5385,4096.9231,4123.5897,4089.2308,4142.0513,4153.3333,4115.3846,4202.0513
4172.3077,4139.4872,4120.5128,4090.7692,4117.4359,4108.7179,4125.641,4094.359,4151.2821,4154.359,4118.9744,4199.4872
4178.4615,4137.4359,4124.1026,4105.641,4109.2308,4116.9231,4127.1795,4103.0769,4151.2821,4160,4114.8718,4201.0256
4171.2821,4118.4615,4126.1538,4105.641,4100.5128,4109.2308,4126.6667,4103.0769,4138.9744,4155.8974,4112.8205,4191.7949
4155.3846,4124.1026,4113.3333,4100,4115.3846,4105.1282,4121.5385,4089.2308,4122.5641,4134.8718,4107.6923,4183.0769
4173.3333,4141.5385,4106.6667,4113.8462,4137.9487,4110.2564,4114.8718,4084.1026,4122.5641,4134.359,4110.2564,4196.9231
4183.5897,4138.4615,4110.2564,4125.1282,4122.5641,4108.2051,4108.2051,4086.6667,4123.5897,4144.1026,4109.2308,4191.2821
4168.2051,4134.8718,4110.2564,4117.9487,4115.3846,4105.641,4106.6667,4085.1282,4120,4137.9487,4102.0513,4180
4177.4359,4136.4103,4111.7949,4117.9487,4112.3077,4103.0769,4110.7692,4089.2308,4126.6667,4133.3333,4108.7179,4209.2308
4190.7692,4130.2564,4119.4872,4124.1026,4092.3077,4095.3846,4109.7436,4090.2564,4130.2564,4141.0256,4121.5385,4211.7949
4185.1282,4135.3846,4125.1282,4129.2308,4111.7949,4104.6154,4114.8718,4083.0769,4122.5641,4146.6667,4116.4103,4178.4615
4181.5385,4143.5897,4132.8205,4141.0256,4141.0256,4119.4872,4125.1282,4083.0769,4116.9231,4147.6923,4108.7179,4182.0513
4182.5641,4136.4103,4135.8974,4143.5897,4128.2051,4112.3077,4122.5641,4087.1795,4121.5385,4147.1795,4121.0256,4205.1282
4189.7436,4142.5641,4133.3333,4129.2308,4115.8974,4101.5385,4115.8974,4089.2308,4125.641,4147.1795,4135.3846,4201.5385
4192.8205,4154.8718,4133.8462,4128.2051,4117.4359,4100.5128,4115.8974,4092.3077,4125.1282,4151.7949,4131.7949,4189.7436
4178.9744,4140.5128,4135.8974,4147.6923,4110.2564,4101.5385,4113.3333,4095.8974,4128.2051,4161.5385,4133.3333,4196.9231
4164.1026,4124.1026,4133.3333,4144.6154,4115.3846,4099.4872,4104.6154,4095.3846,4127.6923,4160.5128,4144.1026,4203.5897
4172.3077,4143.5897,4133.8462,4118.9744,4127.1795,4095.3846,4104.1026,4099.4872,4127.6923,4158.4615,4151.7949,4197.4359
4184.1026,4168.7179,4139.4872,4120.5128,4123.5897,4097.4359,4111.7949,4107.6923,4132.3077,4164.6154,4156.9231,4192.3077
4175.3846,4159.4872,4138.4615,4133.3333,4116.4103,4095.3846,4114.8718,4101.0256,4124.1026,4165.1282,4143.0769,4197.4359
4175.3846,4150.7692,4135.3846,4134.8718,4111.7949,4095.3846,4117.9487,4097.9487,4113.8462,4161.0256,4132.8205,4209.2308
4187.6923,4160,4136.4103,4141.0256,4110.2564,4106.6667,4125.1282,4107.1795,4121.0256,4164.6154,4136.9231,4202.5641
4183.5897,4169.2308,4133.3333,4145.641,4127.1795,4115.8974,4121.5385,4105.1282,4128.2051,4168.7179,4134.359,4185.641
4182.0513,4181.5385,4132.8205,4146.1538,4142.5641,4111.7949,4112.8205,4102.0513,4125.1282,4165.1282,4140,4195.8974
4197.9487,4194.359,4138.9744,4153.8462,4141.5385,4109.2308,4115.3846,4109.7436,4123.5897,4166.1538,4158.9744,4217.9487
4206.1538,4198.4615,4145.1282,4157.9487,4144.1026,4118.4615,4123.5897,4117.9487,4129.2308,4173.8462,4167.6923,4217.9487
4193.8462,4180.5128,4143.5897,4156.9231,4120.5128,4116.4103,4122.5641,4117.9487,4128.7179,4172.3077,4156.9231,4200
4186.6667,4161.5385,4139.4872,4160.5128,4114.8718,4111.2821,4119.4872,4113.8462,4117.9487,4169.7436,4149.2308,4187.6923
4200,4181.5385,4138.9744,4165.641,4158.9744,4119.4872,4120,4113.3333,4113.3333,4174.8718,4152.8205,4194.359
4210.7692,4202.5641,4138.9744,4166.6667,4157.4359,4114.8718,4118.4615,4114.359,4120,4178.9744,4146.6667,4202.5641
4200.5128,4193.3333,4139.4872,4167.1795,4122.5641,4107.6923,4120.5128,4117.9487,4125.641,4177.4359,4136.9231,4193.3333
4189.2308,4184.6154,4141.0256,4168.7179,4130.2564,4114.8718,4124.1026,4116.9231,4125.641,4178.9744,4142.0513,4185.1282
4193.3333,4179.4872,4136.4103,4172.3077,4128.7179,4113.8462,4119.4872,4109.2308,4121.0256,4180,4152.3077,4183.0769
4185.1282,4166.6667,4127.6923,4174.359,4112.3077,4107.1795,4116.9231,4108.2051,4117.9487,4173.3333,4156.4103,4168.7179
4160,4166.6667,4126.6667,4165.641,4142.5641,4113.8462,4119.4872,4108.2051,4114.8718,4169.7436,4152.3077,4154.8718
4181.0256,4198.4615,4137.9487,4165.641,4165.1282,4128.2051,4125.1282,4112.3077,4124.1026,4184.6154,4159.4872,4180.5128
4221.0256,4225.1282,4144.6154,4173.8462,4149.2308,4133.3333,4133.3333,4120.5128,4139.4872,4198.4615,4178.4615,4208.7179
4198.4615,4212.3077,4138.4615,4171.2821,4150.2564,4128.7179,4133.3333,4116.9231,4126.6667,4188.7179,4175.8974,4182.5641
4175.3846,4195.3846,4137.9487,4177.9487,4145.1282,4125.641,4125.1282,4112.8205,4111.7949,4177.4359,4166.1538,4158.4615
4187.6923,4189.2308,4140.5128,4182.0513,4121.0256,4121.0256,4122.0513,4117.4359,4119.4872,4175.3846,4172.3077,4166.6667
4173.8462,4183.5897,4132.3077,4169.2308,4124.1026,4113.3333,4120.5128,4114.8718,4118.4615,4171.2821,4176.4103,4169.2308
4156.9231,4180.5128,4123.5897,4161.0256,4138.4615,4113.3333,4114.359,4107.1795,4110.2564,4164.6154,4170.7692,4161.0256
4168.2051,4178.9744,4118.9744,4166.6667,4136.4103,4116.4103,4114.8718,4106.1538,4116.9231,4163.0769,4172.3077,4159.4872
4174.8718,4181.5385,4117.4359,4170.7692,4127.6923,4115.3846,4119.4872,4114.359,4127.1795,4168.2051,4185.641,4165.1282
4165.641,4191.2821,4116.4103,4170.7692,4123.5897,4118.9744,4116.9231,4123.5897,4124.1026,4173.8462,4189.2308,4169.2308
4162.5641,4211.2821,4121.0256,4178.9744,4133.8462,4123.0769,4122.0513,4126.6667,4125.641,4179.4872,4190.2564,4176.9231
4167.1795,4220.5128,4130.2564,4189.2308,4153.8462,4120.5128,4130.2564,4121.0256,4127.1795,4176.4103,4196.9231,4188.7179
4171.2821,4206.1538,4129.7436,4183.5897,4148.7179,4114.8718,4124.1026,4111.2821,4112.3077,4167.1795,4187.1795,4185.641
4173.8462,4200,4124.6154,4176.9231,4134.359,4120,4120,4117.9487,4114.359,4165.641,4174.8718,4174.8718
4162.0513,4207.1795,4126.6667,4181.5385,4145.1282,4124.6154,4127.1795,4129.2308,4129.7436,4167.6923,4180,4168.7179
4154.359,4213.3333,4127.1795,4174.8718,4148.7179,4118.9744,4128.7179,4124.1026,4125.1282,4164.6154,4185.1282,4170.2564
4170.7692,4214.8718,4122.0513,4166.6667,4133.8462,4115.8974,4123.5897,4116.9231,4117.9487,4163.5897,4185.1282,4180
4172.3077,4210.7692,4121.5385,4178.9744,4126.6667,4114.8718,4117.9487,4113.3333,4114.359,4161.0256,4182.0513,4166.6667
4155.8974,4209.7436,4118.9744,4184.1026,4149.2308,4118.4615,4110.2564,4103.0769,4098.9744,4154.8718,4169.2308,4142.5641
4163.5897,4218.9744,4116.4103,4176.9231,4163.5897,4123.0769,4113.3333,4101.5385,4098.9744,4160.5128,4167.6923,4152.8205
4180,4214.8718,4122.0513,4177.4359,4136.9231,4117.9487,4123.5897,4121.0256,4126.6667,4174.359,4197.4359,4169.7436
4181.5385,4208.2051,4126.1538,4180.5128,4133.8462,4116.4103,4122.5641,4134.359,4137.9487,4173.8462,4221.0256,4166.1538
4176.9231,4211.2821,4126.1538,4178.4615,4153.3333,4123.0769,4117.4359,4126.1538,4119.4872,4164.1026,4210.7692,4164.6154
4171.2821,4209.7436,4128.2051,4182.0513,4147.1795,4127.6923,4118.9744,4117.4359,4118.9744,4160.5128,4201.0256,4167.6923
4166.1538,4205.1282,4124.6154,4177.4359,4142.0513,4125.1282,4121.5385,4113.8462,4129.7436,4155.8974,4194.359,4153.8462
4168.7179,4201.5385,4118.4615,4163.5897,4156.9231,4129.7436,4126.1538,4110.2564,4124.1026,4153.3333,4185.1282,4144.1026
4165.641,4203.5897,4122.0513,4170.7692,4168.7179,4140,4131.7949,4119.4872,4132.8205,4162.5641,4203.5897,4153.3333
4162.5641,4216.4103,4130.7692,4193.3333,4165.641,4141.0256,4132.8205,4125.1282,4149.2308,4171.7949,4226.1538,4156.9231
4187.1795,4233.3333,4138.9744,4206.1538,4147.1795,4143.0769,4140,4121.5385,4159.4872,4178.9744,4231.7949,4165.641
4197.4359,4231.7949,4148.2051,4200,4134.8718,4147.6923,4144.6154,4125.1282,4171.2821,4185.641,4235.3846,4171.2821
4174.8718,4216.9231,4149.2308,4198.9744,4156.4103,4145.641,4133.3333,4124.6154,4167.6923,4184.1026,4229.2308,4153.3333
4169.2308,4213.8462,4143.5897,4205.1282,4180,4144.1026,4126.6667,4120,4155.3846,4176.4103,4221.0256,4144.1026
4176.4103,4215.3846,4139.4872,4196.4103,4167.1795,4144.1026,4132.3077,4121.0256,4153.3333,4170.2564,4214.8718,4151.7949
4171.7949,4216.4103,4134.8718,4190.7692,4146.6667,4139.4872,4135.3846,4126.6667,4156.9231,4168.7179,4210.2564,4148.7179
4174.8718,4220.5128,4133.3333,4205.641,4153.3333,4140,4140,4135.3846,4153.3333,4169.2308,4219.4872,4140.5128
4188.7179,4227.6923,4138.4615,4212.8205,4165.1282,4150.2564,4144.6154,4138.4615,4155.8974,4173.3333,4232.8205,4145.641
4181.5385,4221.0256,4142.5641,4207.1795,4147.6923,4141.0256,4132.8205,4126.1538,4160.5128,4174.359,4231.2821,4141.5385
4186.6667,4228.2051,4164.1026,4238.9744,4151.2821,4146.1538,4142.0513,4132.8205,4174.8718,4183.5897,4236.9231,4151.7949
4258.9744,4304.1026,4231.7949,4311.2821,4235.8974,4221.5385,4207.1795,4198.4615,4237.9487,4233.8462,4298.9744,4226.1538
4342.0513,4387.1795,4299.4872,4358.4615,4312.8205,4292.8205,4265.1282,4263.5897,4307.6923,4286.6667,4381.0256,4302.0513
4354.359,4392.8205,4308.7179,4363.5897,4304.6154,4292.3077,4269.7436,4266.6667,4315.8974,4286.6667,4408.2051,4308.2051
4341.0256,4380.5128,4298.4615,4369.2308,4287.6923,4282.0513,4263.5897,4262.0513,4306.1538,4269.7436,4404.1026,4296.9231
4340,4389.2308,4299.4872,4377.9487,4287.1795,4287.6923,4268.2051,4277.4359,4317.9487,4269.7436,4414.359,4299.4872
4340.5128,4384.1026,4291.7949,4368.7179,4280.5128,4281.5385,4268.7179,4272.3077,4320,4271.7949,4413.8462,4295.8974
4348.2051,4380.5128,4286.6667,4360,4290.2564,4283.5897,4266.1538,4253.3333,4310.7692,4272.3077,4396.9231,4300
4346.1538,4387.1795,4287.6923,4360,4294.359,4284.6154,4260,4249.2308,4302.5641,4274.359,4390.7692,4292.3077
4337.4359,4381.5385,4282.5641,4362.5641,4274.359,4272.8205,4255.3846,4257.9487,4297.4359,4272.3077,4398.9744,4268.2051
4332.8205,4364.6154,4276.9231,4360,4264.1026,4272.3077,4255.3846,4256.4103,4291.7949,4264.6154,4399.4872,4255.3846
4329.7436,4371.2821,4273.8462,4354.359,4281.5385,4276.4103,4253.3333,4247.6923,4287.6923,4262.0513,4391.7949,4260
4335.3846,4397.4359,4271.2821,4361.0256,4288.2051,4281.0256,4258.9744,4256.9231,4298.4615,4268.2051,4397.9487,4276.9231
4331.2821,4388.7179,4274.359,4366.6667,4278.9744,4284.6154,4263.0769,4266.1538,4304.6154,4272.3077,4410.2564,4280.5128
4335.3846,4372.3077,4281.5385,4363.5897,4287.6923,4280,4256.4103,4262.5641,4300.5128,4274.359,4418.4615,4285.1282
4359.4872,4394.8718,4281.5385,4368.2051,4289.7436,4271.2821,4256.4103,4264.1026,4303.5897,4274.8718,4422.0513,4292.3077
4358.9744,4413.8462,4280.5128,4381.5385,4275.3846,4270.7692,4260,4267.6923,4303.0769,4272.8205,4417.9487,4277.4359
4341.5385,4408.2051,4281.5385,4388.7179,4290.2564,4276.9231,4253.8462,4265.1282,4289.2308,4266.6667,4408.7179,4266.1538
4345.641,4406.6667,4278.4615,4391.7949,4292.8205,4273.8462,4249.7436,4263.5897,4280,4264.6154,4402.0513,4271.2821
4334.359,4392.8205,4273.3333,4389.7436,4261.5385,4269.2308,4253.3333,4261.0256,4278.4615,4266.1538,4400,4261.5385
4303.0769,4371.7949,4261.5385,4364.1026,4261.5385,4269.7436,4248.2051,4244.1026,4262.5641,4257.4359,4385.641,4241.5385
4301.0256,4376.4103,4246.1538,4335.8974,4270.7692,4263.5897,4240,4227.6923,4246.1538,4249.2308,4366.6667,4234.359
4314.8718,4389.2308,4245.641,4338.9744,4251.7949,4257.4359,4237.9487,4231.2821,4251.2821,4249.2308,4368.7179,4230.7692
4313.8462,4384.1026,4254.359,4348.2051,4251.2821,4254.8718,4233.3333,4227.6923,4252.3077,4247.1795,4373.8462,4227.6923
4309.7436,4378.9744,4247.6923,4334.8718,4265.641,4244.1026,4223.0769,4210.7692,4249.2308,4240,4369.2308,4227.6923
4306.6667,4382.0513,4244.6154,4329.7436,4243.0769,4236.4103,4214.8718,4206.6667,4257.9487,4241.0256,4370.7692,4225.1282
4307.6923,4378.9744,4255.3846,4342.0513,4230.2564,4247.6923,4215.8974,4211.7949,4267.1795,4251.7949,4380,4224.1026
4324.1026,4388.7179,4258.4615,4337.9487,4266.6667,4258.4615,4218.4615,4213.3333,4269.2308,4256.9231,4392.8205,4229.7436
4334.359,4403.0769,4255.8974,4328.2051,4273.3333,4248.2051,4215.3846,4211.7949,4265.1282,4257.9487,4390.7692,4238.9744
4327.1795,4407.1795,4262.5641,4341.0256,4250.2564,4245.1282,4216.4103,4221.0256,4269.2308,4260.5128,4389.2308,4251.2821
4318.4615,4405.641,4264.1026,4349.2308,4261.0256,4257.4359,4224.6154,4237.4359,4277.4359,4255.3846,4398.4615,4247.6923
4307.6923,4392.8205,4251.2821,4337.4359,4260.5128,4260.5128,4222.5641,4243.0769,4272.8205,4246.6667,4391.7949,4228.7179
4308.2051,4386.1538,4251.2821,4334.8718,4234.8718,4261.5385,4221.5385,4249.7436,4273.8462,4248.2051,4389.7436,4238.9744
4312.3077,4383.0769,4254.8718,4329.2308,4243.0769,4257.4359,4225.1282,4255.3846,4277.9487,4248.7179,4394.8718,4243.5897
4297.4359,4372.8205,4238.4615,4310.7692,4257.4359,4251.7949,4223.5897,4244.1026,4263.5897,4238.4615,4372.8205,4213.8462
4282.0513,4369.7436,4228.2051,4314.359,4240.5128,4260.5128,4223.5897,4227.6923,4255.8974,4229.7436,4355.3846,4206.6667
4282.0513,4374.8718,4239.4872,4327.1795,4238.9744,4263.0769,4225.641,4225.1282,4263.5897,4233.3333,4366.6667,4214.359
4293.8462,4373.8462,4254.359,4331.2821,4255.8974,4255.8974,4221.5385,4227.1795,4263.5897,4241.5385,4373.3333,4214.8718
4300,4366.6667,4253.8462,4340.5128,4234.8718,4249.7436,4213.3333,4221.5385,4255.8974,4243.5897,4366.1538,4210.7692
4298.9744,4370.2564,4247.6923,4345.641,4210.2564,4244.1026,4209.7436,4218.9744,4260,4246.1538,4370.2564,4204.1026
4301.0256,4378.9744,4250.2564,4343.5897,4229.7436,4241.5385,4209.2308,4224.6154,4266.6667,4249.7436,4378.4615,4200
4304.6154,4383.0769,4259.4872,4352.8205,4250.2564,4249.2308,4211.2821,4229.2308,4267.6923,4252.8205,4382.5641,4212.3077
4310.7692,4382.0513,4265.1282,4364.6154,4255.8974,4257.4359,4212.3077,4232.8205,4272.3077,4262.0513,4393.3333,4233.3333
4308.7179,4367.1795,4257.9487,4362.5641,4253.8462,4255.3846,4208.7179,4233.3333,4271.7949,4261.0256,4385.641,4228.7179
4302.5641,4358.9744,4250.7692,4360.5128,4242.5641,4249.7436,4208.7179,4233.8462,4268.7179,4250.7692,4369.7436,4208.7179
4314.359,4377.4359,4258.9744,4367.1795,4244.1026,4251.2821,4215.8974,4247.6923,4275.8974,4254.8718,4376.4103,4212.3077
4318.4615,4377.4359,4262.0513,4362.5641,4246.6667,4252.8205,4220.5128,4261.5385,4270.2564,4262.0513,4376.4103,4217.4359
4298.9744,4353.3333,4248.2051,4352.8205,4234.8718,4248.7179,4220.5128,4261.0256,4260.5128,4257.9487,4360,4201.0256
4289.2308,4342.5641,4241.0256,4346.6667,4229.2308,4248.7179,4224.1026,4256.9231,4264.6154,4253.8462,4357.4359,4189.2308
4284.6154,4332.8205,4242.5641,4336.4103,4233.8462,4247.6923,4224.1026,4252.3077,4256.4103,4249.2308,4349.7436,4185.1282
4265.1282,4320.5128,4237.4359,4328.7179,4232.8205,4242.0513,4217.9487,4242.0513,4240,4240,4328.2051,4172.8205
4261.5385,4321.0256,4229.7436,4318.9744,4233.8462,4237.4359,4212.8205,4229.7436,4238.9744,4238.9744,4322.0513,4166.1538
4287.1795,4328.7179,4231.2821,4309.7436,4237.9487,4236.9231,4211.7949,4233.8462,4244.6154,4249.2308,4332.3077,4169.7436
4293.8462,4327.1795,4238.4615,4313.3333,4231.2821,4237.9487,4210.2564,4242.0513,4243.0769,4250.7692,4332.3077,4165.1282
4281.5385,4326.1538,4244.6154,4319.4872,4235.3846,4243.0769,4208.7179,4238.4615,4243.5897,4249.7436,4329.7436,4164.1026
4290.7692,4335.8974,4251.2821,4324.6154,4250.2564,4247.6923,4210.7692,4245.641,4257.9487,4261.5385,4345.641,4181.0256
4296.4103,4328.2051,4257.9487,4327.6923,4235.8974,4237.9487,4212.3077,4263.0769,4265.641,4269.2308,4358.9744,4183.5897
4287.6923,4322.0513,4256.9231,4317.4359,4233.3333,4233.8462,4216.4103,4270.2564,4261.0256,4261.5385,4358.9744,4168.7179
4287.6923,4335.3846,4240.5128,4305.1282,4252.8205,4245.1282,4219.4872,4265.1282,4252.3077,4247.6923,4353.8462,4148.2051
4280,4330.2564,4228.2051,4302.0513,4228.7179,4245.641,4221.5385,4261.0256,4247.1795,4245.1282,4344.1026,4132.8205
4262.5641,4309.2308,4235.3846,4297.4359,4205.641,4242.0513,4221.5385,4258.4615,4250.2564,4253.3333,4344.1026,4144.6154
4258.9744,4297.9487,4231.7949,4294.8718,4234.359,4243.5897,4213.8462,4247.6923,4240,4249.2308,4331.7949,4146.6667
4272.8205,4297.9487,4221.5385,4304.6154,4257.4359,4244.6154,4213.3333,4244.1026,4227.6923,4238.9744,4310.7692,4125.641
4270.2564,4294.8718,4226.1538,4303.5897,4232.8205,4242.5641,4218.4615,4251.2821,4227.6923,4241.0256,4310.7692,4119.4872
4252.3077,4285.641,4225.641,4284.1026,4223.0769,4240,4210.7692,4242.5641,4221.0256,4243.0769,4315.8974,4128.2051
4267.6923,4299.4872,4223.0769,4290.7692,4241.5385,4240.5128,4203.0769,4241.0256,4229.2308,4241.5385,4326.6667,4133.8462
4290.2564,4325.641,4235.3846,4312.3077,4228.7179,4235.3846,4205.641,4260.5128,4254.359,4250.2564,4345.1282,4148.7179
4278.4615,4322.5641,4237.4359,4315.3846,4212.3077,4227.6923,4201.0256,4262.0513,4254.8718,4258.4615,4345.1282,4162.5641
4270.2564,4303.5897,4224.6154,4317.9487,4222.0513,4224.6154,4194.359,4249.7436,4243.0769,4247.6923,4336.4103,4161.5385
4278.9744,4301.5385,4225.1282,4321.5385,4233.3333,4226.1538,4195.8974,4250.7692,4245.641,4237.4359,4334.359,4154.8718
4271.2821,4303.5897,4223.5897,4309.2308,4224.1026,4227.6923,4192.8205,4248.2051,4244.1026,4236.9231,4325.641,4151.7949
4246.6667,4280.5128,4204.6154,4295.8974,4214.359,4218.9744,4189.2308,4227.6923,4220.5128,4226.6667,4298.4615,4128.7179
4236.4103,4254.359,4196.4103,4300.5128,4211.7949,4215.3846,4195.3846,4217.9487,4200,4213.8462,4275.8974,4100.5128
4243.0769,4258.9744,4201.5385,4299.4872,4204.6154,4227.1795,4200.5128,4226.6667,4200.5128,4218.4615,4280,4110.2564
4245.641,4271.2821,4201.0256,4293.3333,4211.2821,4230.2564,4202.5641,4229.7436,4203.5897,4226.6667,4289.2308,4121.5385
4246.6667,4262.5641,4198.9744,4305.1282,4215.8974,4223.5897,4203.0769,4229.7436,4201.5385,4224.6154,4284.6154,4109.7436
4249.7436,4249.2308,4199.4872,4317.9487,4214.359,4218.9744,4192.8205,4232.3077,4201.0256,4218.9744,4274.359,4114.8718
4257.9487,4261.5385,4202.5641,4313.3333,4221.5385,4213.8462,4184.1026,4233.3333,4209.7436,4221.0256,4284.1026,4137.4359
4265.641,4272.3077,4204.6154,4300.5128,4225.1282,4211.7949,4185.1282,4231.2821,4218.9744,4225.1282,4301.5385,4137.9487
4257.4359,4260.5128,4201.5385,4302.5641,4222.5641,4214.359,4188.2051,4228.7179,4215.8974,4222.5641,4294.8718,4125.1282
4254.359,4264.1026,4207.1795,4316.9231,4221.0256,4221.0256,4196.9231,4237.9487,4219.4872,4223.5897,4290.2564,4135.8974
4254.8718,4264.1026,4212.3077,4307.1795,4205.641,4223.0769,4199.4872,4241.0256,4214.8718,4223.5897,4288.7179,4135.8974
4253.3333,4243.5897,4205.1282,4287.6923,4196.9231,4221.0256,4195.3846,4226.6667,4196.9231,4218.9744,4275.8974,4127.1795
4265.641,4245.641,4207.6923,4300,4221.5385,4230.7692,4206.1538,4230.7692,4203.0769,4222.5641,4280.5128,4142.0513
4269.2308,4256.4103,4216.4103,4314.359,4241.5385,4238.4615,4216.4103,4242.5641,4220,4228.2051,4290.2564,4141.0256
4263.0769,4243.5897,4215.3846,4307.1795,4242.5641,4238.9744,4215.8974,4241.0256,4221.0256,4225.1282,4287.6923,4124.6154
4276.9231,4242.5641,4223.0769,4317.9487,4235.3846,4246.1538,4225.1282,4251.7949,4226.6667,4225.1282,4292.8205,4140
4289.2308,4260.5128,4234.359,4336.4103,4227.1795,4252.3077,4232.8205,4265.1282,4241.5385,4236.4103,4302.0513,4161.5385
4280,4253.3333,4226.1538,4321.5385,4240,4247.6923,4222.0513,4248.7179,4239.4872,4233.3333,4293.3333,4150.7692
4274.8718,4232.3077,4216.4103,4305.1282,4253.3333,4243.5897,4213.3333,4228.7179,4226.6667,4225.1282,4281.5385,4136.9231
4279.4872,4242.5641,4225.641,4323.0769,4253.3333,4250.2564,4218.9744,4236.9231,4234.359,4232.8205,4286.1538,4148.2051
4277.4359,4266.1538,4231.7949,4335.8974,4256.9231,4254.8718,4218.4615,4242.5641,4245.641,4233.8462,4289.2308,4157.9487
4278.4615,4262.0513,4230.7692,4317.9487,4233.3333,4247.6923,4213.8462,4237.4359,4243.5897,4228.7179,4288.2051,4148.7179
4283.5897,4243.5897,4234.8718,4312.3077,4216.4103,4242.5641,4216.9231,4242.0513,4249.7436,4233.3333,4295.3846,4146.1538
4276.4103,4239.4872,4236.4103,4320.5128,4247.6923,4244.1026,4215.8974,4240.5128,4255.3846,4230.2564,4292.8205,4156.4103
4267.6923,4255.8974,4230.2564,4316.4103,4255.8974,4246.1538,4215.3846,4238.4615,4247.1795,4215.3846,4284.1026,4164.1026
4269.7436,4260.5128,4222.0513,4317.9487,4236.9231,4251.7949,4223.0769,4243.5897,4236.9231,4209.2308,4282.0513,4156.9231
4263.0769,4240.5128,4209.7436,4320,4241.5385,4256.9231,4223.0769,4237.9487,4220,4206.6667,4266.1538,4135.8974
4262.0513,4238.4615,4206.1538,4306.6667,4238.9744,4250.7692,4217.9487,4228.7179,4215.8974,4205.1282,4256.4103,4129.2308
4266.1538,4243.0769,4212.3077,4300.5128,4215.3846,4234.8718,4214.359,4225.641,4230.2564,4211.2821,4270.7692,4138.4615
4256.9231,4225.641,4217.4359,4311.7949,4216.4103,4223.5897,4207.6923,4222.0513,4233.3333,4216.9231,4277.9487,4143.5897
4259.4872,4226.6667,4223.0769,4322.5641,4233.3333,4221.5385,4205.1282,4225.1282,4229.7436,4217.9487,4271.2821,4150.2564
4271.7949,4250.7692,4227.6923,4312.8205,4225.641,4219.4872,4207.6923,4224.6154,4229.7436,4213.3333,4263.5897,4147.6923
4265.1282,4248.2051,4223.0769,4302.5641,4208.2051,4224.6154,4211.2821,4217.4359,4226.6667,4204.1026,4261.5385,4134.359
4251.2821,4228.7179,4213.3333,4306.1538,4212.3077,4233.3333,4215.3846,4218.4615,4220.5128,4203.0769,4262.0513,4131.7949
4260.5128,4236.9231,4216.9231,4312.3077,4233.3333,4236.9231,4220,4224.1026,4221.5385,4213.8462,4261.5385,4141.0256
4273.3333,4254.8718,4228.2051,4312.3077,4237.4359,4232.3077,4220,4220,4223.5897,4218.9744,4256.9231,4140.5128
4260.5128,4245.641,4225.641,4304.6154,4212.8205,4222.0513,4211.2821,4208.2051,4218.9744,4213.8462,4244.6154,4126.1538
4254.359,4240.5128,4215.3846,4301.0256,4212.8205,4221.5385,4206.1538,4207.1795,4222.0513,4209.7436,4242.5641,4124.6154
4256.9231,4250.2564,4215.3846,4305.1282,4229.7436,4226.1538,4208.2051,4213.8462,4224.1026,4206.6667,4246.6667,4129.7436
4242.5641,4235.8974,4214.8718,4300,4217.4359,4225.1282,4208.7179,4214.359,4217.4359,4203.0769,4237.4359,4117.9487
4231.2821,4215.8974,4203.0769,4280,4207.1795,4224.6154,4208.7179,4214.359,4211.7949,4200.5128,4230.7692,4105.1282
4235.8974,4217.4359,4194.8718,4273.8462,4217.4359,4228.2051,4211.2821,4218.9744,4207.1795,4199.4872,4231.2821,4102.5641
4243.5897,4229.7436,4197.9487,4296.4103,4223.0769,4232.3077,4208.2051,4226.1538,4205.641,4201.0256,4231.2821,4105.1282
4244.6154,4233.8462,4203.0769,4303.5897,4222.0513,4233.3333,4206.1538,4225.1282,4207.1795,4205.641,4228.7179,4112.3077
4246.1538,4230.7692,4209.2308,4293.8462,4227.6923,4235.8974,4211.2821,4220.5128,4211.2821,4215.8974,4236.9231,4121.5385
4254.8718,4233.8462,4216.4103,4297.9487,4230.7692,4236.4103,4209.7436,4223.5897,4222.0513,4222.5641,4253.3333,4125.641
4250.7692,4236.4103,4215.3846,4303.5897,4224.1026,4231.7949,4203.5897,4224.6154,4222.5641,4216.4103,4249.2308,4113.3333
4235.8974,4225.641,4206.6667,4295.3846,4214.8718,4229.2308,4196.4103,4210.7692,4205.641,4206.1538,4228.2051,4102.0513
4230.2564,4205.1282,4198.9744,4283.0769,4212.8205,4221.0256,4184.6154,4193.3333,4189.2308,4197.4359,4214.8718,4096.9231
4238.9744,4212.3077,4199.4872,4285.641,4210.2564,4208.2051,4188.2051,4195.8974,4190.2564,4201.0256,4216.4103,4091.7949
4237.4359,4224.6154,4205.1282,4286.1538,4203.5897,4210.2564,4204.1026,4213.8462,4201.0256,4207.1795,4218.9744,4093.3333
4214.8718,4193.8462,4196.4103,4262.5641,4205.1282,4213.3333,4197.4359,4207.1795,4194.359,4201.0256,4203.0769,4077.4359
4213.8462,4184.1026,4184.1026,4246.1538,4217.4359,4208.7179,4183.5897,4184.6154,4183.5897,4197.9487,4193.8462,4066.6667
4228.7179,4216.9231,4193.8462,4256.9231,4215.8974,4209.2308,4191.7949,4185.641,4191.7949,4203.5897,4205.641,4081.5385
4218.4615,4218.4615,4203.0769,4262.0513,4210.2564,4210.2564,4201.0256,4187.6923,4194.8718,4202.0513,4206.1538,4083.5897
4201.0256,4195.3846,4192.3077,4252.8205,4202.5641,4208.7179,4201.0256,4182.5641,4189.7436,4195.3846,4201.0256,4067.1795
4202.5641,4187.6923,4184.6154,4250.7692,4184.1026,4210.7692,4201.5385,4182.0513,4190.2564,4190.7692,4197.4359,4065.1282
4205.1282,4183.0769,4184.6154,4254.359,4190.2564,4209.7436,4196.4103,4177.9487,4188.7179,4186.1538,4186.6667,4072.8205
4199.4872,4181.5385,4180.5128,4260,4206.1538,4203.0769,4185.641,4173.3333,4181.5385,4182.0513,4183.5897,4066.1538
4203.5897,4191.2821,4181.0256,4266.1538,4200.5128,4197.4359,4181.5385,4178.9744,4179.4872,4184.1026,4191.7949,4061.5385
4218.4615,4203.0769,4194.359,4261.5385,4208.2051,4194.359,4185.1282,4185.1282,4185.641,4193.8462,4194.359,4074.8718
4221.5385,4203.5897,4200.5128,4253.3333,4200,4189.7436,4187.1795,4183.5897,4187.1795,4198.4615,4188.7179,4079.4872
4216.4103,4195.3846,4197.9487,4260,4167.6923,4194.8718,4193.8462,4188.2051,4185.641,4194.359,4190.2564,4075.8974
4214.359,4196.4103,4201.5385,4266.6667,4176.9231,4206.6667,4201.5385,4195.8974,4192.8205,4193.8462,4195.8974,4082.5641
4208.7179,4198.9744,4195.8974,4261.5385,4205.1282,4206.1538,4195.8974,4188.2051,4191.7949,4193.8462,4186.6667,4083.5897
4203.5897,4197.9487,4184.1026,4260,4207.1795,4203.0769,4188.2051,4180,4186.1538,4188.2051,4178.9744,4076.4103
4209.7436,4206.6667,4191.2821,4264.1026,4202.5641,4203.0769,4190.7692,4185.1282,4194.359,4190.7692,4192.3077,4076.4103
4225.1282,4221.5385,4204.6154,4262.0513,4196.9231,4202.5641,4192.8205,4195.3846,4211.7949,4203.0769,4206.6667,4082.0513
4232.3077,4213.8462,4201.0256,4256.9231,4178.9744,4201.0256,4188.2051,4198.4615,4217.4359,4204.1026,4198.4615,4085.641
4216.4103,4188.2051,4189.2308,4246.1538,4171.2821,4195.3846,4182.5641,4189.2308,4204.1026,4194.359,4178.9744,4076.4103
4205.1282,4191.2821,4185.1282,4234.359,4192.3077,4201.0256,4184.6154,4186.1538,4200.5128,4193.8462,4183.0769,4068.7179
4214.8718,4208.7179,4183.0769,4240.5128,4214.8718,4212.3077,4192.8205,4200,4206.1538,4200.5128,4191.2821,4076.9231
4217.4359,4206.1538,4180,4249.7436,4201.0256,4205.1282,4195.8974,4208.7179,4203.5897,4201.5385,4182.0513,4077.4359
4209.7436,4202.5641,4180.5128,4249.7436,4177.9487,4195.8974,4193.8462,4204.6154,4199.4872,4196.9231,4180.5128,4068.2051
4204.6154,4209.7436,4182.5641,4246.6667,4196.4103,4200.5128,4195.3846,4198.4615,4196.9231,4190.7692,4184.1026,4066.6667
4211.2821,4215.3846,4186.6667,4251.2821,4210.2564,4207.1795,4201.5385,4203.0769,4198.4615,4192.8205,4180.5128,4072.8205
4219.4872,4209.7436,4188.7179,4260,4177.4359,4205.641,4201.5385,4203.0769,4196.4103,4198.4615,4173.3333,4073.8462
4215.8974,4206.1538,4181.0256,4257.4359,4173.8462,4198.9744,4195.8974,4196.9231,4190.2564,4194.359,4175.8974,4065.1282
4211.2821,4217.4359,4176.9231,4257.9487,4211.2821,4200.5128,4191.2821,4205.1282,4195.8974,4192.3077,4182.5641,4062.0513
4203.0769,4212.3077,4180,4262.0513,4203.0769,4206.6667,4188.2051,4207.1795,4195.8974,4191.2821,4166.1538,4060.5128
4194.359,4193.8462,4177.9487,4270.2564,4167.1795,4194.8718,4183.5897,4193.3333,4183.5897,4182.5641,4147.6923,4051.7949
4196.4103,4204.1026,4169.7436,4273.3333,4172.8205,4177.9487,4176.9231,4186.1538,4174.359,4173.3333,4152.3077,4050.7692
4192.3077,4214.359,4165.641,4260.5128,4185.1282,4180.5128,4172.3077,4185.1282,4175.3846,4174.359,4150.2564,4055.3846
4187.1795,4203.5897,4165.641,4255.3846,4178.4615,4189.7436,4173.3333,4184.6154,4179.4872,4178.4615,4140.5128,4057.4359
4198.4615,4208.7179,4165.641,4268.2051,4181.5385,4185.1282,4176.4103,4189.7436,4177.4359,4181.5385,4147.6923,4057.4359
4208.7179,4229.2308,4171.2821,4275.8974,4190.7692,4185.1282,4182.5641,4202.0513,4178.4615,4188.2051,4158.4615,4066.6667
4198.4615,4222.0513,4171.7949,4263.5897,4186.6667,4192.8205,4185.1282,4201.5385,4182.5641,4186.6667,4152.8205,4072.3077
4183.5897,4195.3846,4166.1538,4257.4359,4172.3077,4191.7949,4179.4872,4190.2564,4172.8205,4180,4137.9487,4054.359
4183.0769,4192.8205,4170.2564,4256.9231,4178.9744,4197.9487,4178.9744,4188.7179,4163.5897,4180,4131.7949,4038.4615
4186.6667,4192.3077,4171.7949,4241.0256,4188.7179,4201.5385,4175.8974,4190.2564,4166.6667,4177.9487,4125.641,4032.3077
4184.6154,4174.8718,4159.4872,4233.8462,4168.2051,4188.2051,4169.7436,4185.641,4165.641,4172.3077,4115.3846,4030.2564
4185.641,4181.5385,4157.9487,4248.2051,4162.0513,4183.0769,4175.3846,4191.2821,4165.641,4174.8718,4125.1282,4045.1282
4192.3077,4209.7436,4171.7949,4259.4872,4185.641,4187.1795,4182.0513,4204.1026,4175.3846,4184.6154,4140.5128,4064.1026
4193.3333,4208.7179,4171.2821,4252.8205,4199.4872,4184.6154,4172.8205,4201.0256,4173.8462,4185.1282,4132.8205,4063.0769
4186.6667,4187.1795,4160,4242.5641,4186.1538,4178.4615,4165.1282,4186.6667,4157.9487,4178.9744,4115.8974,4048.2051
4187.6923,4192.8205,4156.4103,4237.9487,4166.6667,4172.8205,4166.1538,4182.0513,4158.4615,4175.3846,4115.8974,4047.6923
4191.2821,4203.0769,4156.9231,4237.4359,4164.1026,4171.2821,4163.0769,4184.1026,4166.6667,4174.8718,4120.5128,4054.359
4185.641,4191.7949,4158.9744,4237.9487,4157.9487,4171.7949,4162.0513,4181.5385,4162.0513,4178.9744,4121.0256,4055.8974
4190.7692,4189.2308,4164.1026,4237.9487,4150.2564,4173.3333,4165.1282,4185.1282,4166.1538,4189.7436,4132.3077,4064.6154
4185.641,4183.0769,4151.7949,4234.359,4156.9231,4167.1795,4158.9744,4182.0513,4164.1026,4185.1282,4125.641,4061.0256
4163.5897,4172.3077,4132.8205,4225.641,4157.9487,4154.8718,4150.7692,4168.7179,4139.4872,4167.6923,4095.3846,4052.8205
4162.5641,4182.5641,4131.2821,4220.5128,4154.8718,4155.3846,4151.7949,4172.3077,4134.8718,4161.0256,4091.2821,4059.4872
4166.1538,4186.6667,4136.4103,4220,4158.4615,4160.5128,4155.3846,4179.4872,4141.5385,4167.6923,4099.4872,4056.4103
4165.641,4175.3846,4141.0256,4226.6667,4155.8974,4160.5128,4161.0256,4177.4359,4139.4872,4174.359,4096.4103,4056.9231
4169.2308,4167.6923,4139.4872,4228.2051,4128.7179,4151.7949,4161.0256,4176.9231,4141.5385,4167.6923,4094.8718,4056.9231
4164.6154,4162.0513,4125.1282,4212.8205,4124.1026,4146.1538,4151.2821,4171.2821,4137.4359,4159.4872,4093.8462,4045.641
4166.6667,4169.2308,4121.5385,4204.6154,4161.0256,4157.4359,4149.2308,4159.4872,4129.2308,4162.5641,4089.7436,4047.6923
4175.8974,4180,4133.3333,4209.2308,4171.7949,4163.5897,4152.8205,4149.2308,4124.6154,4169.7436,4082.5641,4053.8462
4171.7949,4169.7436,4137.9487,4215.8974,4152.8205,4152.8205,4144.6154,4145.641,4127.1795,4171.7949,4079.4872,4047.6923
4157.9487,4156.9231,4135.3846,4214.359,4128.2051,4142.5641,4137.9487,4152.8205,4134.359,4173.3333,4083.5897,4045.641
4155.3846,4150.7692,4134.8718,4195.8974,4121.0256,4145.1282,4146.6667,4160,4139.4872,4176.9231,4083.0769,4048.2051
4163.0769,4149.7436,4136.4103,4189.7436,4134.8718,4148.2051,4155.8974,4160,4138.9744,4175.8974,4078.4615,4049.7436
4162.0513,4152.8205,4135.8974,4204.6154,4141.0256,4152.3077,4153.8462,4156.4103,4134.8718,4168.2051,4080,4049.2308
4158.4615,4156.9231,4134.359,4209.7436,4144.6154,4159.4872,4148.7179,4154.8718,4135.8974,4168.7179,4086.6667,4053.8462
4158.9744,4154.359,4134.359,4203.0769,4153.3333,4155.3846,4149.2308,4152.3077,4139.4872,4174.8718,4085.641,4061.5385
4161.0256,4149.2308,4138.4615,4208.2051,4146.6667,4148.2051,4153.3333,4144.1026,4141.0256,4172.3077,4076.4103,4058.9744
4159.4872,4149.2308,4141.5385,4216.9231,4128.7179,4153.8462,4154.359,4138.9744,4145.641,4166.1538,4077.4359,4053.8462
4156.9231,4147.6923,4137.9487,4222.0513,4131.7949,4159.4872,4150.7692,4135.8974,4142.0513,4164.1026,4076.9231,4054.359
4165.641,4153.8462,4134.359,4228.7179,4151.7949,4165.641,4152.3077,4134.8718,4138.4615,4167.1795,4076.9231,4056.4103
4165.641,4151.2821,4136.9231,4220.5128,4146.1538,4170.7692,4154.8718,4132.3077,4140.5128,4164.1026,4078.4615,4054.8718
4154.8718,4137.9487,4135.8974,4212.3077,4130.7692,4164.6154,4151.7949,4125.641,4136.9231,4158.4615,4071.2821,4054.359
4159.4872,4151.2821,4132.8205,4221.5385,4137.9487,4155.8974,4153.8462,4131.2821,4135.8974,4158.9744,4069.2308,4062.0513
4166.1538,4161.0256,4130.7692,4224.1026,4145.641,4151.2821,4151.7949,4133.8462,4130.7692,4156.9231,4065.1282,4061.5385
4149.7436,4142.0513,4126.1538,4211.2821,4139.4872,4149.2308,4142.0513,4122.5641,4122.0513,4149.7436,4056.4103,4044.1026
4139.4872,4134.359,4125.641,4203.0769,4129.2308,4146.6667,4137.9487,4119.4872,4124.6154,4149.2308,4053.8462,4040
4148.2051,4136.4103,4129.2308,4198.9744,4113.3333,4136.4103,4131.2821,4116.4103,4124.1026,4151.7949,4046.1538,4053.3333
4136.9231,4125.1282,4122.5641,4192.3077,4108.2051,4134.359,4123.0769,4103.5897,4114.8718,4145.641,4032.8205,4042.5641
4120.5128,4118.9744,4113.3333,4195.3846,4130.2564,4144.1026,4129.2308,4101.0256,4108.2051,4143.0769,4028.2051,4028.7179
4134.8718,4130.7692,4120.5128,4212.3077,4140,4141.5385,4135.8974,4107.6923,4107.1795,4148.7179,4033.3333,4045.1282
4141.0256,4135.3846,4130.2564,4222.5641,4113.8462,4131.2821,4128.7179,4107.6923,4105.641,4147.6923,4033.8462,4047.6923
4128.2051,4122.5641,4129.2308,4214.359,4106.1538,4126.1538,4125.641,4104.1026,4103.5897,4145.641,4027.6923,4034.359
4138.9744,4122.0513,4125.641,4207.6923,4128.2051,4125.1282,4130.7692,4102.0513,4103.5897,4148.2051,4022.5641,4054.359
4151.7949,4136.4103,4121.5385,4213.8462,4132.8205,4125.641,4131.7949,4096.9231,4104.1026,4150.2564,4024.6154,4067.1795
4142.0513,4141.0256,4123.0769,4225.641,4119.4872,4128.7179,4135.8974,4101.0256,4109.2308,4153.8462,4034.8718,4044.6154
4135.8974,4128.2051,4126.6667,4233.8462,4109.2308,4135.8974,4140.5128,4110.2564,4110.2564,4155.3846,4042.0513,4040
4134.359,4119.4872,4123.5897,4232.8205,4104.1026,4133.8462,4132.3077,4103.0769,4097.9487,4149.7436,4034.8718,4051.2821
4137.4359,4126.6667,4116.4103,4227.1795,4116.9231,4126.1538,4124.6154,4092.3077,4093.8462,4144.1026,4024.1026,4053.8462
4138.9744,4128.2051,4113.3333,4215.8974,4131.2821,4127.6923,4130.2564,4092.3077,4095.3846,4138.9744,4018.9744,4046.1538
4133.8462,4123.5897,4115.3846,4210.7692,4111.2821,4129.7436,4136.4103,4099.4872,4095.3846,4138.4615,4020.5128,4045.641
4143.5897,4128.7179,4119.4872,4223.0769,4101.0256,4127.6923,4134.8718,4105.641,4101.0256,4141.0256,4027.1795,4054.359
4152.3077,4130.7692,4126.1538,4231.2821,4109.7436,4123.5897,4131.2821,4100,4098.9744,4140.5128,4023.5897,4050.2564
4148.2051,4131.2821,4135.8974,4230.7692,4109.7436,4122.5641,4129.2308,4098.4615,4096.9231,4141.0256,4021.0256,4054.359
4151.7949,4143.5897,4142.0513,4228.7179,4118.4615,4124.6154,4126.1538,4104.6154,4109.7436,4145.1282,4030.2564,4077.4359
4148.7179,4137.9487,4131.2821,4217.9487,4124.6154,4125.1282,4122.5641,4096.9231,4110.2564,4141.5385,4026.1538,4074.359
4141.0256,4121.5385,4125.1282,4212.3077,4109.2308,4120.5128,4122.0513,4091.7949,4097.4359,4133.8462,4017.9487,4061.0256
4149.2308,4131.7949,4134.359,4223.0769,4103.0769,4118.4615,4123.5897,4102.0513,4096.9231,4135.3846,4025.1282,4070.7692
4153.3333,4137.9487,4139.4872,4231.2821,4111.7949,4130.2564,4125.641,4111.2821,4104.6154,4141.0256,4031.2821,4070.7692
4147.1795,4119.4872,4135.3846,4225.641,4112.3077,4133.8462,4128.7179,4110.7692,4098.9744,4140,4021.0256,4052.3077
4149.2308,4120.5128,4134.359,4223.0769,4120,4129.7436,4133.8462,4108.2051,4090.2564,4138.4615,4011.7949,4053.3333
4157.4359,4145.1282,4138.4615,4233.8462,4133.3333,4138.9744,4139.4872,4112.3077,4103.0769,4142.5641,4021.5385,4072.3077
4155.3846,4142.0513,4137.4359,4241.0256,4125.641,4139.4872,4135.8974,4109.7436,4110.2564,4138.9744,4023.5897,4074.359
4152.3077,4131.7949,4133.3333,4237.4359,4117.4359,4130.2564,4129.7436,4103.0769,4100.5128,4128.7179,4017.9487,4063.5897
4155.8974,4143.0769,4134.8718,4238.9744,4120,4130.2564,4134.359,4110.2564,4106.1538,4129.2308,4029.2308,4071.2821
4157.4359,4147.1795,4138.4615,4244.6154,4117.4359,4131.2821,4139.4872,4117.4359,4116.9231,4137.9487,4040.5128,4079.4872
4158.4615,4143.5897,4138.9744,4245.1282,4121.5385,4134.359,4133.8462,4109.7436,4111.2821,4138.9744,4043.5897,4074.359
4163.0769,4147.6923,4142.5641,4247.6923,4135.8974,4137.9487,4130.2564,4103.5897,4104.6154,4136.9231,4042.0513,4082.0513
4164.1026,4153.8462,4147.6923,4253.8462,4144.1026,4136.9231,4137.9487,4113.8462,4109.7436,4141.0256,4041.0256,4094.8718
4160.5128,4156.4103,4142.5641,4246.6667,4140.5128,4134.8718,4142.0513,4121.0256,4110.7692,4143.5897,4045.1282,4086.6667
4149.7436,4151.7949,4132.8205,4230.7692,4122.0513,4130.7692,4135.8974,4115.3846,4103.5897,4142.0513,4043.0769,4073.3333
4140.5128,4146.1538,4124.6154,4222.0513,4107.6923,4128.2051,4136.9231,4113.8462,4098.4615,4135.8974,4035.3846,4069.7436
4133.8462,4139.4872,4113.8462,4212.8205,4114.8718,4128.2051,4139.4872,4111.7949,4089.7436,4122.5641,4024.6154,4058.9744
4136.4103,4138.9744,4108.2051,4205.1282,4139.4872,4128.7179,4130.7692,4106.1538,4084.6154,4121.5385,4019.4872,4057.9487
4147.1795,4150.7692,4113.3333,4210.7692,4140,4131.2821,4122.5641,4107.6923,4094.8718,4136.4103,4029.7436,4076.4103
4143.5897,4151.7949,4118.4615,4227.1795,4106.6667,4129.2308,4123.0769,4109.2308,4100.5128,4136.4103,4043.5897,4074.8718
4145.1282,4153.3333,4125.1282,4240,4108.7179,4126.1538,4124.6154,4111.2821,4103.5897,4129.2308,4051.7949,4072.3077
4153.8462,4158.9744,4125.641,4235.8974,4134.359,4122.0513,4117.4359,4109.7436,4106.1538,4132.3077,4045.641,4080
4145.1282,4149.7436,4114.359,4223.0769,4122.0513,4115.3846,4112.3077,4100.5128,4096.9231,4134.359,4034.359,4072.3077
4143.5897,4148.7179,4115.8974,4224.6154,4107.6923,4116.4103,4120,4105.641,4100.5128,4134.359,4041.0256,4072.8205
4148.2051,4153.8462,4126.1538,4227.6923,4119.4872,4120.5128,4124.1026,4115.8974,4107.1795,4136.4103,4046.1538,4080.5128
4141.0256,4144.6154,4124.1026,4220.5128,4116.9231,4117.4359,4121.0256,4116.9231,4099.4872,4136.9231,4037.9487,4081.0256
4137.4359,4143.0769,4123.0769,4227.6923,4111.2821,4112.8205,4122.5641,4115.3846,4103.5897,4136.4103,4038.4615,4085.641
4144.1026,4156.4103,4124.1026,4233.3333,4129.7436,4110.2564,4122.0513,4110.2564,4113.3333,4133.3333,4040.5128,4088.2051
4139.4872,4155.3846,4112.8205,4216.4103,4125.1282,4108.2051,4115.8974,4102.5641,4106.1538,4127.6923,4033.8462,4085.1282
4123.5897,4144.6154,4109.2308,4205.1282,4103.5897,4109.7436,4116.9231,4104.6154,4100.5128,4128.2051,4032.8205,4081.0256
4129.7436,4158.4615,4125.641,4214.8718,4118.9744,4118.9744,4126.1538,4116.9231,4115.8974,4135.8974,4042.5641,4089.2308
4149.2308,4165.641,4132.3077,4219.4872,4135.8974,4121.5385,4127.6923,4120,4120.5128,4136.4103,4038.9744,4096.9231
4140.5128,4141.5385,4118.9744,4208.7179,4124.6154,4118.9744,4123.0769,4114.359,4103.5897,4128.2051,4023.5897,4085.641
4118.9744,4133.3333,4115.3846,4206.1538,4118.4615,4125.1282,4120,4111.7949,4098.9744,4125.641,4025.641,4081.0256
4122.5641,4144.1026,4120.5128,4210.2564,4117.9487,4128.2051,4123.0769,4109.7436,4110.2564,4130.2564,4030.7692,4090.2564
4139.4872,4147.1795,4115.3846,4205.641,4116.4103,4123.0769,4126.6667,4106.1538,4123.0769,4133.8462,4033.8462,4094.8718
4132.3077,4147.6923,4108.2051,4197.9487,4116.4103,4118.4615,4124.1026,4101.5385,4123.0769,4128.2051,4037.9487,4083.5897
4120.5128,4146.1538,4106.6667,4193.3333,4118.9744,4114.8718,4120.5128,4093.3333,4108.2051,4122.5641,4033.8462,4077.9487
4131.2821,4142.5641,4107.1795,4192.8205,4121.5385,4112.8205,4122.0513,4092.8205,4108.7179,4124.1026,4033.8462,4089.7436
4128.7179,4141.0256,4100,4189.7436,4124.6154,4112.3077,4123.5897,4095.8974,4115.3846,4115.8974,4036.9231,4080.5128
4116.4103,4147.1795,4094.8718,4184.6154,4128.2051,4116.4103,4123.0769,4094.8718,4111.2821,4110.7692,4030.2564,4070.2564
4122.0513,4147.6923,4102.0513,4179.4872,4118.9744,4117.9487,4126.1538,4097.9487,4116.4103,4122.0513,4028.7179,4088.2051
4123.0769,4131.7949,4104.6154,4170.7692,4110.2564,4114.359,4125.1282,4096.9231,4122.5641,4126.6667,4035.8974,4090.7692
4118.4615,4130.2564,4096.9231,4171.2821,4120,4117.9487,4116.9231,4090.2564,4120,4114.8718,4039.4872,4069.2308
4125.1282,4144.1026,4096.9231,4179.4872,4127.6923,4123.0769,4112.3077,4086.6667,4115.8974,4112.8205,4034.8718,4065.1282
4134.359,4148.2051,4104.1026,4177.4359,4132.3077,4124.1026,4116.4103,4088.7179,4115.8974,4124.6154,4031.7949,4080.5128
4132.3077,4141.5385,4108.2051,4167.1795,4123.5897,4122.5641,4123.0769,4094.359,4121.5385,4130.2564,4030.7692,4087.1795
4123.0769,4135.3846,4105.641,4159.4872,4101.0256,4115.3846,4120,4096.4103,4123.5897,4128.7179,4027.6923,4074.359
4118.9744,4141.5385,4101.5385,4168.7179,4112.3077,4113.3333,4114.359,4100.5128,4115.3846,4124.1026,4026.6667,4060.5128
4124.6154,4150.7692,4105.1282,4183.0769,4141.5385,4114.359,4116.9231,4105.641,4107.6923,4122.5641,4026.1538,4070.2564
4128.2051,4153.8462,4110.2564,4180.5128,4127.6923,4112.3077,4122.5641,4107.6923,4109.2308,4124.6154,4025.1282,4076.4103
4112.3077,4155.8974,4105.641,4174.359,4130.7692,4120.5128,4129.2308,4111.7949,4104.6154,4117.9487,4022.5641,4049.7436
4109.7436,4158.4615,4111.2821,4188.7179,4149.7436,4135.3846,4132.8205,4118.9744,4095.3846,4115.8974,4016.4103,4046.1538
4126.1538,4145.641,4127.6923,4205.1282,4120.5128,4135.8974,4131.2821,4121.5385,4104.1026,4127.1795,4018.4615,4080.5128
4119.4872,4125.641,4120,4182.5641,4110.2564,4130.2564,4125.1282,4113.3333,4105.641,4120.5128,4014.8718,4069.7436
4108.7179,4134.359,4105.641,4160.5128,4141.0256,4136.9231,4125.1282,4115.8974,4096.9231,4105.641,4016.9231,4042.5641
4129.7436,4160.5128,4117.4359,4179.4872,4153.8462,4148.2051,4134.359,4136.9231,4105.641,4115.8974,4042.5641,4073.3333
4141.5385,4162.5641,4120.5128,4188.2051,4148.2051,4142.5641,4133.3333,4145.1282,4112.8205,4129.7436,4049.2308,4092.8205
4127.6923,4150.7692,4107.1795,4173.3333,4137.4359,4129.7436,4121.5385,4143.5897,4104.6154,4124.1026,4027.6923,4065.641
4119.4872,4142.0513,4104.1026,4168.7179,4123.5897,4124.6154,4117.4359,4143.0769,4093.8462,4115.3846,4014.359,4044.6154
4110.7692,4133.3333,4103.5897,4177.9487,4126.6667,4128.2051,4121.0256,4140.5128,4092.3077,4122.0513,4011.7949,4036.4103
4102.0513,4132.3077,4101.0256,4181.0256,4134.8718,4133.3333,4118.9744,4136.4103,4099.4872,4127.6923,4011.2821,4033.3333
4104.1026,4133.8462,4102.5641,4179.4872,4115.3846,4129.7436,4113.8462,4129.7436,4096.9231,4120,4011.7949,4023.5897
4103.0769,4134.359,4109.7436,4189.2308,4107.1795,4131.2821,4119.4872,4134.359,4094.359,4116.9231,4020,4007.1795
4100,4140,4115.8974,4195.3846,4124.6154,4142.0513,4126.6667,4144.6154,4100,4121.0256,4027.6923,3997.9487
4104.1026,4142.0513,4112.8205,4184.6154,4140,4143.5897,4123.0769,4134.359,4090.7692,4117.4359,4015.8974,3991.2821
4112.3077,4148.2051,4109.2308,4179.4872,4153.8462,4144.6154,4119.4872,4124.6154,4080,4112.3077,4006.6667,3989.2308
4104.1026,4150.2564,4116.4103,4191.7949,4138.9744,4146.6667,4122.0513,4136.9231,4085.1282,4121.5385,4017.4359,3986.6667
4093.8462,4145.1282,4121.5385,4195.8974,4121.0256,4140,4123.5897,4145.1282,4095.3846,4130.2564,4029.7436,3977.4359
4091.7949,4142.5641,4106.1538,4184.1026,4140,4138.9744,4117.9487,4128.7179,4095.3846,4125.1282,4026.1538,3968.7179
4083.0769,4138.9744,4092.3077,4175.8974,4143.5897,4141.5385,4113.3333,4112.8205,4094.8718,4121.5385,4017.9487,3964.6154
4078.4615,4133.8462,4097.4359,4173.8462,4125.1282,4137.4359,4117.4359,4111.7949,4098.9744,4125.641,4017.4359,3960.5128
4074.8718,4126.6667,4095.8974,4169.2308,4136.4103,4138.9744,4121.5385,4109.7436,4087.1795,4120,4014.8718,3944.6154
4074.8718,4125.641,4088.7179,4165.641,4147.6923,4141.5385,4120.5128,4109.7436,4082.0513,4120.5128,4013.8462,3940
4082.0513,4128.7179,4096.4103,4159.4872,4134.8718,4136.4103,4119.4872,4115.3846,4098.4615,4128.7179,4012.8205,3944.1026
4078.9744,4125.1282,4101.5385,4155.8974,4134.8718,4136.4103,4121.0256,4116.4103,4098.4615,4128.2051,4002.0513,3937.4359
4073.8462,4119.4872,4100,4161.5385,4127.1795,4142.0513,4125.1282,4116.9231,4088.2051,4126.6667,4002.5641,3925.1282
4070.7692,4107.1795,4099.4872,4156.9231,4101.0256,4135.3846,4123.0769,4115.3846,4088.2051,4128.7179,4004.1026,3905.641
4056.4103,4094.359,4095.8974,4141.5385,4112.3077,4129.2308,4114.8718,4110.2564,4086.6667,4126.6667,3993.3333,3891.7949
4047.1795,4090.7692,4096.9231,4138.9744,4139.4872,4135.8974,4112.8205,4114.8718,4086.6667,4126.6667,3989.7436,3891.2821
4055.3846,4090.2564,4104.6154,4140,4140.5128,4139.4872,4115.8974,4115.3846,4093.3333,4127.1795,3984.6154,3874.359
4058.4615,4093.8462,4101.0256,4131.2821,4134.8718,4144.1026,4118.4615,4101.0256,4092.3077,4122.0513,3974.8718,3851.2821
4045.1282,4094.359,4086.1538,4122.5641,4117.4359,4141.5385,4120.5128,4085.641,4078.4615,4117.4359,3976.4103,3849.7436
4033.8462,4084.1026,4085.1282,4119.4872,4103.0769,4128.2051,4117.4359,4082.5641,4070.7692,4117.4359,3984.6154,3847.6923
4033.8462,4078.4615,4098.4615,4116.9231,4109.2308,4125.641,4113.8462,4085.641,4084.6154,4117.9487,3991.7949,3841.0256
4035.3846,4078.4615,4107.6923,4117.4359,4100.5128,4130.2564,4115.8974,4081.5385,4095.3846,4123.0769,3994.359,3845.1282
4050.2564,4081.5385,4112.3077,4130.7692,4096.9231,4129.2308,4115.3846,4084.1026,4090.2564,4134.8718,4000,3857.9487
4061.5385,4085.1282,4117.9487,4145.1282,4120,4127.1795,4111.2821,4092.8205,4081.5385,4139.4872,4004.6154,3861.0256
4053.8462,4088.2051,4123.0769,4148.2051,4126.1538,4128.7179,4113.3333,4093.8462,4080,4138.9744,4006.6667,3855.8974
4060,4102.5641,4126.1538,4154.359,4119.4872,4134.359,4121.5385,4100,4095.8974,4146.1538,4017.9487,3867.1795
4067.1795,4104.6154,4125.1282,4154.8718,4124.6154,4135.8974,4121.5385,4104.1026,4099.4872,4150.7692,4018.4615,3870.7692
4051.7949,4091.7949,4118.4615,4145.641,4128.2051,4133.8462,4115.3846,4095.8974,4081.5385,4143.0769,4004.6154,3853.8462
4038.4615,4089.7436,4111.7949,4147.1795,4124.6154,4133.3333,4114.8718,4091.2821,4075.3846,4133.8462,4002.5641,3841.0256
4047.6923,4091.7949,4114.359,4158.9744,4116.4103,4135.3846,4121.0256,4098.4615,4092.3077,4137.9487,3998.4615,3843.0769
4059.4872,4091.2821,4125.641,4159.4872,4102.0513,4136.4103,4125.641,4103.0769,4101.0256,4144.1026,3990.2564,3853.8462
4049.2308,4086.1538,4124.6154,4144.6154,4094.359,4127.6923,4119.4872,4092.3077,4086.6667,4133.8462,3995.3846,3848.2051
4040.5128,4088.7179,4111.7949,4139.4872,4108.2051,4127.1795,4115.3846,4088.7179,4080,4127.6923,4013.3333,3844.6154
4044.1026,4094.359,4111.7949,4145.1282,4125.1282,4131.2821,4113.8462,4095.8974,4083.0769,4133.8462,4019.4872,3856.9231
4043.5897,4091.2821,4115.3846,4150.2564,4118.4615,4122.5641,4111.7949,4094.8718,4075.8974,4132.8205,4011.2821,3858.9744
4038.9744,4086.1538,4108.7179,4149.7436,4107.1795,4122.5641,4114.8718,4089.2308,4069.7436,4127.6923,4008.2051,3846.6667
4037.9487,4085.1282,4108.2051,4144.1026,4109.7436,4131.7949,4118.4615,4082.5641,4075.3846,4129.7436,4005.1282,3838.9744
4046.6667,4088.7179,4119.4872,4150.7692,4116.4103,4133.8462,4121.5385,4080.5128,4085.641,4129.2308,4003.0769,3841.5385
4052.3077,4086.6667,4118.4615,4166.1538,4104.6154,4140,4124.1026,4080,4081.5385,4118.9744,4007.6923,3837.4359
4051.2821,4090.2564,4116.9231,4175.8974,4096.9231,4146.6667,4126.6667,4084.1026,4074.8718,4122.0513,4007.6923,3836.4103
4054.8718,4103.5897,4127.1795,4180,4110.7692,4137.4359,4126.6667,4093.8462,4083.5897,4134.359,4009.7436,3840
4048.2051,4097.9487,4121.5385,4178.4615,4113.3333,4123.5897,4118.9744,4087.6923,4074.8718,4126.1538,4017.4359,3825.1282
4034.359,4092.8205,4109.2308,4174.8718,4106.1538,4124.6154,4114.359,4071.2821,4057.4359,4115.8974,4023.5897,3813.3333
4033.3333,4095.8974,4107.1795,4168.2051,4110.7692,4126.6667,4114.359,4072.8205,4064.1026,4118.4615,4018.4615,3814.8718
4032.8205,4083.5897,4104.6154,4161.0256,4109.7436,4120.5128,4113.3333,4086.6667,4061.5385,4117.9487,4012.3077,3795.8974
4034.8718,4080,4103.5897,4171.2821,4105.641,4126.6667,4117.4359,4095.8974,4055.8974,4117.4359,4016.9231,3770.2564
4042.5641,4094.359,4110.7692,4187.1795,4108.2051,4131.2821,4123.0769,4096.4103,4069.7436,4122.0513,4019.4872,3775.3846
4040,4095.8974,4107.1795,4176.4103,4106.1538,4120,4120.5128,4086.6667,4071.7949,4120.5128,4021.0256,3792.8205
4033.3333,4088.7179,4100,4164.6154,4108.7179,4120.5128,4116.4103,4081.5385,4065.1282,4122.0513,4027.6923,3801.5385
4045.641,4094.8718,4110.2564,4176.9231,4124.6154,4133.3333,4121.0256,4084.1026,4075.8974,4132.3077,4034.359,3802.5641
4060.5128,4100,4121.5385,4186.6667,4117.9487,4130.2564,4122.0513,4086.1538,4086.1538,4135.8974,4032.8205,3797.4359
4050.2564,4086.6667,4118.9744,4192.3077,4089.2308,4121.5385,4115.3846,4089.7436,4074.8718,4128.7179,4016.9231,3790.2564
4040.5128,4077.9487,4111.2821,4192.8205,4094.8718,4128.7179,4116.4103,4087.6923,4068.7179,4125.1282,4009.7436,3785.1282
4054.8718,4095.3846,4109.2308,4185.1282,4123.0769,4133.8462,4122.5641,4090.2564,4087.1795,4130.2564,4024.6154,3784.1026
4060.5128,4109.7436,4110.7692,4186.6667,4112.3077,4129.7436,4125.1282,4103.0769,4099.4872,4133.3333,4032.3077,3786.6667
4051.7949,4108.2051,4109.7436,4197.4359,4100,4135.8974,4125.641,4112.3077,4092.3077,4130.7692,4032.3077,3801.0256
4048.2051,4110.7692,4110.7692,4204.6154,4117.9487,4140.5128,4125.641,4110.2564,4093.8462,4130.2564,4032.8205,3809.2308
4050.7692,4106.1538,4117.4359,4211.7949,4112.8205,4133.8462,4122.5641,4112.8205,4108.7179,4136.9231,4024.1026,3802.5641
4063.0769,4091.2821,4127.1795,4228.2051,4098.9744,4133.8462,4121.0256,4116.4103,4102.5641,4139.4872,4024.6154,3808.2051
4071.2821,4089.2308,4121.0256,4228.2051,4118.9744,4135.3846,4115.8974,4098.4615,4074.8718,4132.3077,4021.0256,3804.6154
4069.2308,4110.7692,4111.2821,4211.7949,4124.6154,4131.7949,4106.6667,4090.7692,4080,4132.3077,4010.7692,3794.359
4067.1795,4127.6923,4122.5641,4208.2051,4098.4615,4129.2308,4110.2564,4103.5897,4105.641,4144.6154,4009.7436,3797.9487
4061.5385,4115.3846,4137.4359,4212.8205,4094.359,4131.7949,4114.8718,4106.1538,4103.0769,4152.3077,3999.4872,3799.4872
4064.1026,4098.4615,4130.7692,4205.641,4108.7179,4138.4615,4111.2821,4098.9744,4090.7692,4142.5641,3994.359,3804.6154
4074.359,4100,4116.9231,4185.641,4105.641,4136.9231,4108.7179,4097.4359,4089.7436,4132.3077,4006.1538,3825.641
4078.9744,4119.4872,4121.5385,4183.0769,4112.8205,4130.2564,4110.7692,4107.6923,4094.359,4138.9744,4025.1282,3847.1795
4076.9231,4127.1795,4128.2051,4190.7692,4124.1026,4128.2051,4112.8205,4114.8718,4102.0513,4142.5641,4029.7436,3850.2564
4082.5641,4119.4872,4126.1538,4193.8462,4112.3077,4131.2821,4116.9231,4115.8974,4111.2821,4140.5128,4013.8462,3849.7436
4087.1795,4118.4615,4127.1795,4202.5641,4110.2564,4137.9487,4123.0769,4122.0513,4106.6667,4140,4011.7949,3846.1538
4073.8462,4115.8974,4124.6154,4211.2821,4108.7179,4133.3333,4118.9744,4117.9487,4085.641,4130.2564,4018.9744,3826.6667
4065.1282,4109.2308,4114.8718,4204.6154,4092.8205,4122.5641,4114.8718,4109.2308,4075.8974,4120,4001.5385,3814.8718
4063.0769,4099.4872,4113.8462,4185.641,4093.8462,4124.1026,4117.4359,4113.3333,4084.1026,4125.641,3980.5128,3821.0256
4056.4103,4094.8718,4115.3846,4174.359,4110.2564,4128.7179,4115.8974,4117.9487,4095.3846,4135.3846,3999.4872,3833.3333
4063.0769,4116.4103,4112.8205,4174.8718,4118.4615,4127.6923,4111.7949,4116.9231,4106.1538,4134.8718,4022.0513,3846.6667
4072.8205,4132.3077,4112.3077,4178.4615,4113.8462,4130.7692,4110.7692,4119.4872,4098.9744,4127.6923,3998.4615,3843.5897
4064.6154,4116.4103,4111.7949,4184.6154,4108.2051,4135.8974,4111.2821,4121.5385,4086.6667,4122.0513,3978.4615,3837.9487
4061.5385,4108.2051,4109.2308,4189.2308,4108.7179,4128.2051,4109.2308,4119.4872,4087.1795,4121.0256,3984.6154,3841.5385
4061.5385,4112.3077,4104.1026,4179.4872,4102.0513,4116.4103,4106.1538,4116.4103,4081.0256,4122.5641,3976.4103,3837.4359
4049.7436,4107.6923,4099.4872,4165.1282,4099.4872,4117.4359,4100.5128,4109.7436,4077.9487,4119.4872,3969.2308,3831.2821
4043.5897,4099.4872,4102.0513,4160.5128,4106.6667,4116.4103,4096.4103,4105.1282,4093.8462,4118.9744,3983.5897,3833.3333
4051.7949,4093.3333,4104.6154,4159.4872,4101.0256,4111.2821,4102.0513,4113.8462,4103.5897,4124.6154,3988.7179,3848.2051
4054.359,4089.7436,4100.5128,4163.5897,4088.2051,4117.4359,4107.1795,4121.5385,4093.3333,4121.5385,3982.0513,3865.641
4044.1026,4086.6667,4098.9744,4168.7179,4096.9231,4122.0513,4106.1538,4112.8205,4082.5641,4117.9487,3984.6154,3868.7179
4044.6154,4094.359,4108.7179,4164.6154,4120.5128,4121.5385,4107.1795,4116.4103,4094.359,4125.1282,3995.3846,3873.3333
4049.2308,4093.3333,4111.7949,4156.4103,4107.1795,4117.9487,4109.2308,4131.2821,4108.2051,4124.1026,4000.5128,3886.6667
4039.4872,4073.8462,4099.4872,4149.2308,4075.3846,4107.6923,4107.6923,4125.1282,4092.3077,4110.2564,3994.359,3886.1538
4034.8718,4071.2821,4093.8462,4149.2308,4083.0769,4107.6923,4108.2051,4113.3333,4072.3077,4106.1538,3989.2308,3876.4103
4043.0769,4090.2564,4101.0256,4157.4359,4106.1538,4115.3846,4110.7692,4118.9744,4085.1282,4115.8974,3989.7436,3878.9744
4053.3333,4100.5128,4104.6154,4165.641,4104.6154,4117.4359,4110.7692,4128.2051,4108.7179,4125.641,3994.8718,3894.359
4054.359,4093.8462,4103.0769,4167.6923,4094.359,4113.3333,4113.3333,4128.7179,4107.6923,4126.1538,3997.9487,3909.2308
4051.2821,4093.3333,4105.1282,4168.7179,4098.9744,4113.3333,4115.8974,4131.2821,4097.4359,4120,3993.3333,3910.2564
4048.7179,4096.9231,4098.9744,4168.2051,4109.2308,4116.4103,4118.4615,4138.9744,4095.8974,4113.8462,3990.2564,3897.4359
4042.5641,4085.641,4084.6154,4162.5641,4109.7436,4114.8718,4119.4872,4131.7949,4083.0769,4108.7179,3982.0513,3883.0769
4049.7436,4083.0769,4087.6923,4171.7949,4100.5128,4118.4615,4124.1026,4123.0769,4079.4872,4111.7949,3976.9231,3893.8462
4061.5385,4096.4103,4100,4185.1282,4088.7179,4115.8974,4125.1282,4126.1538,4099.4872,4118.4615,3978.9744,3920
4060,4097.4359,4096.4103,4173.3333,4094.359,4108.2051,4113.8462,4126.1538,4107.6923,4120.5128,3990.2564,3925.641
4065.641,4090.2564,4096.9231,4162.5641,4107.6923,4112.3077,4112.8205,4127.6923,4103.0769,4121.5385,4011.7949,3934.359
4068.2051,4089.2308,4101.0256,4162.5641,4110.2564,4119.4872,4115.3846,4123.0769,4096.9231,4117.9487,4009.7436,3947.6923
4060.5128,4095.8974,4096.9231,4155.3846,4107.6923,4117.4359,4108.7179,4118.4615,4096.9231,4110.7692,4007.6923,3946.1538
4065.1282,4101.0256,4094.8718,4146.6667,4098.4615,4114.359,4109.7436,4131.2821,4105.1282,4110.2564,4028.7179,3950.7692
4074.8718,4096.4103,4097.4359,4142.5641,4087.6923,4114.359,4115.3846,4140.5128,4107.1795,4113.8462,4021.5385,3962.5641
4078.4615,4095.8974,4100.5128,4141.0256,4102.5641,4123.5897,4112.3077,4138.9744,4108.2051,4111.2821,4001.0256,3965.641
4082.0513,4104.1026,4105.1282,4154.359,4125.1282,4131.2821,4108.7179,4141.0256,4108.2051,4113.8462,4017.9487,3967.1795
4096.4103,4116.4103,4113.3333,4178.4615,4122.0513,4126.1538,4112.3077,4148.2051,4110.2564,4127.1795,4038.9744,3975.8974
4095.8974,4112.8205,4110.7692,4183.0769,4102.0513,4124.1026,4113.8462,4148.2051,4106.1538,4123.5897,4024.1026,3970.7692
4072.3077,4092.8205,4096.4103,4165.1282,4095.8974,4128.7179,4112.8205,4138.9744,4095.3846,4110.2564,4005.1282,3958.4615
4060.5128,4088.7179,4087.1795,4151.2821,4108.2051,4124.6154,4111.7949,4135.3846,4086.6667,4106.6667,4002.5641,3964.1026
4070.7692,4092.8205,4088.2051,4151.7949,4115.3846,4122.5641,4112.3077,4134.359,4084.1026,4107.6923,4007.1795,3969.2308
4088.2051,4096.9231,4094.359,4165.1282,4112.3077,4130.2564,4117.9487,4138.4615,4101.0256,4112.8205,4022.0513,3975.8974
4090.7692,4086.6667,4096.9231,4169.7436,4113.8462,4126.6667,4114.359,4142.5641,4117.9487,4120.5128,4029.2308,3985.1282
4072.8205,4058.4615,4092.3077,4156.9231,4114.8718,4115.3846,4106.1538,4140,4106.6667,4120,4024.1026,3977.4359
4074.359,4066.1538,4088.2051,4158.9744,4116.9231,4122.5641,4110.2564,4135.8974,4098.4615,4111.7949,4031.2821,3973.3333
4094.359,4103.0769,4087.6923,4169.7436,4120,4127.6923,4111.7949,4134.8718,4107.1795,4104.6154,4031.7949,3985.1282
4095.8974,4108.2051,4090.7692,4162.5641,4106.1538,4120.5128,4110.2564,4135.3846,4104.1026,4105.1282,4011.7949,3993.8462
4088.2051,4093.3333,4093.8462,4155.8974,4088.7179,4115.3846,4110.7692,4133.8462,4093.8462,4106.1538,4002.5641,3986.1538
4098.9744,4094.359,4100,4165.641,4100.5128,4113.8462,4109.2308,4133.8462,4091.2821,4107.1795,4015.8974,3977.4359
4108.7179,4103.0769,4104.1026,4170.7692,4130.7692,4118.9744,4109.7436,4136.4103,4089.7436,4107.6923,4029.2308,3992.3077
4101.5385,4105.641,4098.4615,4164.1026,4125.1282,4121.0256,4106.6667,4129.7436,4091.2821,4105.1282,4022.0513,4010.2564
4100,4101.0256,4095.3846,4167.1795,4104.1026,4112.8205,4102.5641,4123.5897,4097.9487,4100,4005.1282,4006.6667
4101.0256,4089.7436,4093.8462,4171.7949,4119.4872,4114.8718,4103.5897,4126.1538,4090.7692,4090.7692,3995.3846,3997.4359
4087.1795,4086.6667,4090.7692,4163.5897,4122.5641,4121.0256,4106.6667,4126.1538,4074.359,4086.1538,3985.641,3996.9231
4086.1538,4085.1282,4094.359,4157.4359,4093.8462,4118.4615,4111.7949,4136.4103,4076.9231,4098.4615,3989.7436,4003.0769
4094.359,4065.1282,4096.4103,4153.3333,4095.8974,4116.9231,4115.3846,4146.6667,4082.5641,4104.1026,4002.5641,4006.1538
4095.8974,4054.359,4090.7692,4150.7692,4129.2308,4121.0256,4112.3077,4141.0256,4078.9744,4094.359,4008.7179,4010.2564
4107.1795,4074.8718,4097.4359,4155.3846,4135.8974,4124.1026,4114.359,4144.6154,4088.2051,4098.4615,4019.4872,4027.6923
4111.2821,4085.641,4104.6154,4160,4124.6154,4125.1282,4118.9744,4153.3333,4096.4103,4107.6923,4024.6154,4042.0513
4104.1026,4076.4103,4097.4359,4164.6154,4132.8205,4129.2308,4118.9744,4153.3333,4091.2821,4100.5128,4018.9744,4043.0769
4108.2051,4068.2051,4098.4615,4170.7692,4128.2051,4128.2051,4122.0513,4158.9744,4095.8974,4097.4359,4012.8205,4040
4113.3333,4053.3333,4104.6154,4164.6154,4107.6923,4126.6667,4123.0769,4165.1282,4108.2051,4104.1026,4020.5128,4043.5897
4103.5897,4037.9487,4100,4158.9744,4118.4615,4131.7949,4116.9231,4160,4107.1795,4100,4034.8718,4064.1026
4093.8462,4035.3846,4095.8974,4163.0769,4131.2821,4129.7436,4115.8974,4151.2821,4093.8462,4093.8462,4035.8974,4079.4872
4097.9487,4032.3077,4093.8462,4153.8462,4118.4615,4127.6923,4115.8974,4144.1026,4087.6923,4094.359,4024.6154,4067.6923
4098.9744,4020.5128,4085.1282,4136.9231,4109.7436,4131.2821,4106.6667,4133.3333,4090.7692,4090.7692,4010.7692,4054.8718
4093.3333,4008.2051,4083.5897,4138.4615,4111.2821,4125.641,4103.5897,4123.5897,4087.6923,4091.2821,4003.5897,4062.0513
4102.0513,4010.2564,4095.3846,4150.2564,4116.9231,4120.5128,4107.1795,4124.1026,4090.2564,4095.3846,4011.2821,4074.359
4107.6923,4012.8205,4101.5385,4148.7179,4116.4103,4127.6923,4104.6154,4116.9231,4097.4359,4090.7692,4012.8205,4071.2821
4107.6923,4022.0513,4103.0769,4149.7436,4106.1538,4133.3333,4104.1026,4105.641,4097.4359,4088.7179,4005.1282,4071.7949
4118.9744,4045.1282,4107.1795,4161.0256,4103.5897,4130.7692,4110.7692,4109.7436,4090.2564,4091.2821,4010.7692,4084.1026
4125.1282,4047.6923,4104.6154,4161.5385,4108.2051,4124.1026,4110.7692,4114.8718,4078.9744,4089.2308,4017.4359,4083.0769
4115.3846,4031.2821,4100,4153.8462,4110.2564,4121.0256,4105.1282,4110.2564,4075.3846,4086.1538,4011.7949,4080.5128
4114.8718,4034.359,4102.5641,4158.4615,4095.3846,4122.0513,4106.1538,4109.2308,4076.9231,4086.6667,4008.2051,4087.6923
4129.7436,4052.8205,4110.2564,4170.2564,4080,4126.6667,4112.3077,4115.3846,4080,4089.7436,4010.2564,4087.1795
4124.6154,4045.641,4109.2308,4160,4091.7949,4128.7179,4109.2308,4110.7692,4073.8462,4085.1282,4006.1538,4078.9744
4104.1026,4029.2308,4096.4103,4143.0769,4108.7179,4125.1282,4101.5385,4095.3846,4055.3846,4072.3077,3986.1538,4067.6923
4111.7949,4046.1538,4102.0513,4163.5897,4108.7179,4127.6923,4110.2564,4097.4359,4058.9744,4076.9231,3978.9744,4070.7692
4128.2051,4061.0256,4118.9744,4182.5641,4105.1282,4131.2821,4121.5385,4108.2051,4073.8462,4090.7692,3991.2821,4082.0513
4127.1795,4046.1538,4114.359,4163.0769,4108.2051,4133.3333,4115.3846,4106.1538,4072.3077,4091.2821,3997.4359,4082.5641
4126.1538,4040,4106.6667,4155.3846,4108.2051,4133.3333,4114.8718,4108.7179,4074.8718,4089.2308,3998.4615,4083.5897
4125.1282,4050.2564,4117.9487,4169.2308,4107.1795,4125.1282,4119.4872,4118.9744,4080,4092.8205,4005.1282,4088.7179
4126.6667,4063.0769,4122.5641,4167.1795,4106.6667,4118.9744,4113.3333,4122.0513,4080.5128,4095.3846,4010.2564,4093.8462
4131.7949,4066.1538,4114.8718,4161.0256,4087.6923,4117.9487,4110.2564,4119.4872,4081.5385,4093.8462,3991.2821,4091.7949
4129.2308,4053.3333,4114.8718,4162.5641,4074.359,4120,4114.359,4118.9744,4082.5641,4088.7179,3975.3846,4086.1538
4126.1538,4051.7949,4118.9744,4156.4103,4091.7949,4129.2308,4115.3846,4122.0513,4083.5897,4084.1026,4002.0513,4092.3077
4127.1795,4064.1026,4114.8718,4155.3846,4111.2821,4135.8974,4119.4872,4118.9744,4078.4615,4086.1538,4022.5641,4098.4615
4125.641,4059.4872,4108.2051,4160.5128,4109.7436,4133.3333,4124.1026,4112.3077,4076.4103,4087.1795,4011.2821,4099.4872
4119.4872,4047.1795,4103.5897,4149.7436,4103.5897,4130.2564,4120,4106.1538,4082.0513,4085.641,4006.1538,4098.4615
4125.641,4060.5128,4103.0769,4147.1795,4116.9231,4135.3846,4120.5128,4106.6667,4088.2051,4089.7436,4023.0769,4104.6154
4142.5641,4082.5641,4110.7692,4167.6923,4120.5128,4139.4872,4124.1026,4118.4615,4095.8974,4098.4615,4035.3846,4124.1026
4146.1538,4074.359,4116.4103,4171.2821,4089.7436,4128.7179,4119.4872,4121.5385,4102.5641,4104.1026,4026.6667,4142.0513
4145.1282,4065.641,4114.8718,4157.4359,4093.8462,4124.6154,4119.4872,4113.3333,4097.4359,4105.1282,4021.0256,4144.1026
4140.5128,4069.7436,4107.6923,4157.9487,4128.7179,4137.9487,4128.2051,4109.2308,4077.9487,4098.9744,4020.5128,4122.5641
4130.2564,4071.2821,4106.1538,4166.1538,4126.6667,4141.5385,4133.8462,4115.3846,4079.4872,4102.0513,4029.7436,4117.4359
4138.9744,4078.9744,4114.8718,4160,4115.3846,4131.2821,4131.2821,4126.1538,4106.1538,4115.8974,4059.4872,4154.8718
4155.3846,4084.1026,4120,4148.7179,4126.1538,4129.2308,4129.7436,4129.2308,4114.8718,4122.5641,4089.7436,4190.7692
4158.9744,4083.0769,4122.5641,4151.7949,4124.1026,4137.4359,4135.3846,4134.8718,4118.4615,4124.1026,4111.2821,4208.7179
4155.3846,4084.1026,4130.2564,4153.3333,4107.6923,4137.4359,4141.5385,4147.1795,4134.8718,4126.1538,4123.5897,4216.9231
4150.2564,4084.1026,4130.2564,4140,4114.359,4126.6667,4138.4615,4143.5897,4133.3333,4122.5641,4112.8205,4209.7436
4144.6154,4083.5897,4120.5128,4129.2308,4130.7692,4126.1538,4130.2564,4133.3333,4113.8462,4114.8718,4097.9487,4193.8462
4143.0769,4084.6154,4115.8974,4134.8718,4127.1795,4130.7692,4129.7436,4133.3333,4109.2308,4110.7692,4104.6154,4186.1538
4141.0256,4089.7436,4118.4615,4146.1538,4113.8462,4127.1795,4138.9744,4137.9487,4124.1026,4113.8462,4111.2821,4191.2821
4133.8462,4088.7179,4121.0256,4144.1026,4111.7949,4122.5641,4141.0256,4136.4103,4132.8205,4115.8974,4101.5385,4195.8974
4124.1026,4073.8462,4117.9487,4131.7949,4113.8462,4121.0256,4129.2308,4127.1795,4114.8718,4107.1795,4092.8205,4184.1026
4127.1795,4074.359,4116.4103,4134.8718,4110.2564,4122.5641,4126.6667,4129.7436,4107.1795,4102.0513,4103.0769,4175.3846
4141.0256,4095.3846,4125.641,4153.3333,4109.7436,4127.1795,4136.4103,4146.6667,4123.5897,4113.8462,4115.8974,4180.5128
4144.1026,4100.5128,4128.2051,4149.2308,4115.8974,4133.3333,4144.6154,4158.4615,4127.6923,4122.5641,4112.8205,4183.0769
4141.0256,4089.7436,4116.9231,4130.2564,4123.5897,4137.4359,4150.2564,4152.8205,4120.5128,4115.8974,4109.2308,4182.5641
4144.6154,4090.7692,4112.8205,4133.8462,4132.8205,4142.0513,4152.8205,4142.0513,4120,4113.3333,4105.641,4185.1282
4155.8974,4109.7436,4127.6923,4153.3333,4131.7949,4145.1282,4146.1538,4149.7436,4131.7949,4125.641,4107.6923,4199.4872
4156.9231,4109.2308,4135.3846,4148.2051,4113.8462,4138.4615,4138.9744,4158.4615,4138.4615,4128.7179,4111.7949,4203.5897
4148.2051,4091.2821,4124.6154,4131.7949,4108.2051,4131.7949,4140,4149.2308,4131.2821,4120,4115.3846,4196.9231
4154.8718,4096.9231,4117.4359,4141.0256,4126.6667,4132.8205,4138.9744,4144.6154,4126.6667,4121.5385,4123.5897,4209.7436
4167.1795,4113.8462,4121.0256,4153.8462,4134.359,4136.9231,4137.9487,4155.3846,4131.2821,4133.3333,4126.6667,4229.2308
4170.7692,4115.8974,4131.2821,4154.8718,4130.2564,4141.0256,4144.1026,4168.2051,4141.5385,4134.8718,4128.2051,4232.3077
4163.0769,4108.7179,4136.9231,4158.4615,4123.0769,4138.9744,4144.6154,4167.6923,4142.5641,4130.7692,4123.5897,4224.6154
4163.0769,4110.2564,4136.9231,4161.5385,4120,4135.8974,4140.5128,4163.5897,4140,4137.9487,4124.6154,4221.5385
4175.3846,4118.9744,4132.8205,4146.6667,4123.5897,4132.8205,4140.5128,4168.2051,4140,4140,4132.8205,4217.9487
4172.8205,4123.0769,4127.1795,4132.3077,4110.2564,4123.0769,4138.4615,4167.1795,4132.8205,4129.7436,4127.6923,4208.7179
4163.5897,4127.1795,4128.2051,4143.0769,4096.9231,4120,4138.4615,4166.1538,4138.4615,4133.8462,4125.641,4210.7692
4157.4359,4116.4103,4126.1538,4146.1538,4114.359,4126.1538,4141.0256,4167.6923,4146.6667,4145.641,4134.359,4211.2821
4153.3333,4108.2051,4120.5128,4130.2564,4133.8462,4131.7949,4138.9744,4157.4359,4134.8718,4142.5641,4130.2564,4202.5641
4155.3846,4130.2564,4122.5641,4126.6667,4136.4103,4137.9487,4142.0513,4152.8205,4129.7436,4136.4103,4128.7179,4205.641
4157.9487,4148.2051,4125.1282,4132.3077,4129.2308,4132.3077,4148.7179,4160.5128,4137.4359,4135.3846,4130.2564,4207.6923
4154.359,4136.9231,4117.9487,4130.2564,4117.4359,4121.5385,4145.1282,4167.6923,4133.3333,4130.7692,4110.7692,4191.7949
4146.1538,4126.1538,4109.7436,4130.7692,4113.3333,4124.1026,4137.9487,4164.6154,4124.1026,4124.1026,4095.8974,4178.9744
4139.4872,4125.641,4107.6923,4131.7949,4121.5385,4129.7436,4133.8462,4153.8462,4121.5385,4127.1795,4107.1795,4178.4615
4133.3333,4118.9744,4103.5897,4126.6667,4128.7179,4129.2308,4128.2051,4145.1282,4117.9487,4125.1282,4107.1795,4180
4131.2821,4113.3333,4100,4125.1282,4124.1026,4125.641,4123.0769,4142.0513,4121.0256,4118.9744,4085.1282,4175.8974
4145.641,4124.1026,4107.6923,4136.9231,4122.5641,4122.0513,4125.1282,4147.6923,4133.3333,4125.641,4087.6923,4172.3077
4152.3077,4132.3077,4112.8205,4149.2308,4123.0769,4121.0256,4131.2821,4149.7436,4129.7436,4129.7436,4108.7179,4172.8205
4135.8974,4123.5897,4105.641,4147.6923,4114.8718,4125.641,4132.8205,4145.1282,4120,4122.5641,4107.1795,4168.7179
4135.3846,4123.0769,4107.1795,4148.7179,4117.4359,4137.4359,4131.7949,4149.2308,4131.7949,4125.1282,4103.5897,4173.3333
4152.8205,4130.7692,4115.8974,4157.9487,4133.8462,4145.1282,4140.5128,4159.4872,4142.5641,4130.2564,4118.4615,4183.5897
4152.3077,4127.6923,4112.3077,4154.359,4134.8718,4140,4152.8205,4167.6923,4138.9744,4124.6154,4132.3077,4183.5897
4143.0769,4121.0256,4106.1538,4141.0256,4113.8462,4132.8205,4149.2308,4168.7179,4135.3846,4118.4615,4129.2308,4178.9744
4136.9231,4113.8462,4108.7179,4134.8718,4113.3333,4129.7436,4138.4615,4160.5128,4126.1538,4115.8974,4116.9231,4170.2564
4127.6923,4107.6923,4103.5897,4130.7692,4123.5897,4125.1282,4131.7949,4155.8974,4118.4615,4109.7436,4113.8462,4154.8718
4123.0769,4107.6923,4098.4615,4128.7179,4113.8462,4120,4131.7949,4164.6154,4129.7436,4111.2821,4115.8974,4154.359
4138.4615,4120,4109.7436,4135.3846,4112.8205,4125.641,4135.3846,4180.5128,4145.641,4123.0769,4125.641,4175.8974
4151.7949,4130.7692,4123.0769,4138.4615,4123.0769,4132.3077,4133.8462,4181.0256,4147.1795,4124.1026,4141.0256,4184.6154
4141.5385,4126.1538,4119.4872,4132.3077,4117.4359,4124.1026,4124.6154,4163.0769,4137.4359,4113.8462,4144.6154,4170.2564
4137.4359,4127.1795,4111.7949,4127.1795,4119.4872,4120.5128,4122.0513,4159.4872,4138.4615,4114.8718,4145.1282,4168.2051
4148.2051,4135.8974,4114.359,4132.3077,4131.2821,4131.2821,4127.6923,4174.359,4148.7179,4120.5128,4148.2051,4173.8462
4149.2308,4135.8974,4119.4872,4143.0769,4128.7179,4135.8974,4130.7692,4180,4155.8974,4120.5128,4147.6923,4171.7949
4143.5897,4131.7949,4121.0256,4144.6154,4135.8974,4135.8974,4136.4103,4183.0769,4155.8974,4118.9744,4152.3077,4173.8462
4135.3846,4120,4115.3846,4134.8718,4145.641,4138.9744,4136.9231,4184.1026,4141.5385,4113.8462,4153.8462,4171.2821
4131.7949,4110.2564,4110.2564,4129.2308,4134.359,4138.9744,4130.2564,4179.4872,4132.3077,4108.7179,4141.5385,4168.2051
4132.3077,4113.3333,4108.7179,4123.5897,4124.1026,4130.2564,4129.2308,4179.4872,4134.359,4107.1795,4133.8462,4169.2308
4134.359,4119.4872,4106.6667,4119.4872,4128.2051,4128.2051,4133.3333,4187.1795,4135.8974,4108.7179,4147.1795,4174.8718
4134.8718,4124.6154,4110.2564,4132.3077,4137.4359,4138.4615,4134.359,4188.2051,4134.8718,4113.3333,4156.9231,4186.6667
4136.4103,4130.2564,4112.8205,4141.5385,4133.8462,4137.9487,4134.8718,4181.0256,4133.8462,4114.359,4153.8462,4192.3077
4148.7179,4142.5641,4113.8462,4143.0769,4116.9231,4132.8205,4136.4103,4180,4142.0513,4112.8205,4162.5641,4193.8462
4150.2564,4137.9487,4115.3846,4150.7692,4112.3077,4137.9487,4127.1795,4177.4359,4143.5897,4113.3333,4165.1282,4188.2051
4141.0256,4127.6923,4120.5128,4148.2051,4137.9487,4144.6154,4122.5641,4174.359,4130.7692,4117.9487,4157.4359,4184.6154
4138.4615,4135.3846,4126.1538,4133.3333,4155.8974,4139.4872,4129.7436,4174.8718,4123.0769,4119.4872,4167.6923,4184.6154
4128.7179,4131.2821,4118.4615,4124.6154,4127.6923,4126.1538,4125.1282,4162.0513,4114.359,4114.8718,4166.1538,4171.2821
4126.1538,4125.641,4114.8718,4132.3077,4119.4872,4132.8205,4125.641,4165.1282,4118.4615,4118.9744,4160.5128,4177.4359
4150.2564,4154.359,4134.359,4153.3333,4151.7949,4155.3846,4144.1026,4198.9744,4148.7179,4139.4872,4188.7179,4215.3846
4173.3333,4185.1282,4155.8974,4170.2564,4163.0769,4170.2564,4157.9487,4217.4359,4168.7179,4155.8974,4210.7692,4235.8974
4173.8462,4184.1026,4156.4103,4169.7436,4162.5641,4179.4872,4161.0256,4209.2308,4163.0769,4149.7436,4205.641,4230.2564
4172.3077,4181.5385,4150.2564,4166.1538,4175.8974,4186.6667,4167.1795,4211.2821,4160.5128,4140,4207.1795,4230.7692
4183.5897,4197.4359,4157.4359,4176.4103,4184.1026,4189.2308,4173.8462,4224.1026,4169.2308,4147.1795,4212.3077,4241.5385
4187.1795,4200,4168.2051,4175.8974,4177.4359,4191.2821,4177.4359,4227.1795,4172.8205,4150.7692,4207.1795,4248.7179
4176.4103,4183.0769,4163.5897,4161.0256,4184.1026,4191.7949,4180,4222.5641,4167.6923,4143.5897,4211.2821,4247.1795
4174.359,4175.8974,4156.4103,4160,4179.4872,4188.7179,4174.359,4226.1538,4169.7436,4143.5897,4224.6154,4249.7436
4176.9231,4169.2308,4161.0256,4164.6154,4143.0769,4183.5897,4168.2051,4229.2308,4172.8205,4147.1795,4210.7692,4257.4359
4174.8718,4158.9744,4161.5385,4162.5641,4143.0769,4187.1795,4170.2564,4226.6667,4173.8462,4145.641,4192.8205,4259.4872
4177.9487,4160.5128,4157.4359,4157.4359,4180.5128,4194.8718,4171.2821,4225.641,4174.359,4144.6154,4209.2308,4255.3846
4181.0256,4162.5641,4159.4872,4147.1795,4182.0513,4191.7949,4170.2564,4219.4872,4171.2821,4145.1282,4225.1282,4253.8462
4181.5385,4162.0513,4161.0256,4135.8974,4161.5385,4190.2564,4174.359,4214.8718,4172.3077,4147.6923,4218.9744,4263.5897
4188.2051,4163.5897,4157.9487,4136.4103,4166.6667,4192.8205,4176.4103,4212.8205,4171.7949,4147.6923,4204.6154,4269.7436
4191.7949,4162.5641,4160.5128,4145.1282,4173.3333,4188.7179,4172.8205,4209.2308,4174.8718,4149.2308,4201.5385,4270.2564
4183.0769,4157.9487,4164.1026,4142.0513,4156.4103,4181.0256,4169.2308,4209.7436,4182.5641,4148.2051,4207.1795,4273.8462
4179.4872,4153.3333,4160.5128,4133.3333,4145.1282,4176.4103,4165.1282,4204.6154,4177.9487,4148.7179,4201.5385,4267.1795
4184.1026,4153.3333,4155.8974,4138.9744,4155.8974,4173.8462,4160,4193.3333,4173.3333,4150.2564,4198.4615,4262.5641
4174.8718,4144.1026,4148.2051,4142.5641,4154.8718,4166.1538,4148.2051,4184.1026,4168.2051,4144.6154,4196.4103,4262.5641
4168.7179,4138.9744,4148.2051,4139.4872,4143.0769,4163.5897,4140,4189.2308,4161.0256,4146.1538,4195.8974,4260.5128
4183.0769,4149.7436,4154.8718,4143.0769,4151.2821,4168.7179,4144.6154,4194.359,4167.1795,4153.3333,4210.2564,4266.6667
4187.6923,4151.7949,4151.7949,4139.4872,4160,4167.1795,4150.2564,4186.6667,4169.7436,4152.3077,4209.7436,4270.2564
4191.2821,4155.8974,4157.4359,4136.4103,4153.3333,4169.7436,4151.7949,4189.2308,4167.1795,4153.8462,4199.4872,4276.4103
4212.3077,4170.7692,4175.3846,4145.641,4137.4359,4172.8205,4152.3077,4196.4103,4176.4103,4165.1282,4226.1538,4303.0769
4227.1795,4173.8462,4184.1026,4150.7692,4131.2821,4164.6154,4151.7949,4190.7692,4191.2821,4173.3333,4256.4103,4328.7179
4230.7692,4178.9744,4184.6154,4150.7692,4156.9231,4164.1026,4150.2564,4180,4200.5128,4172.8205,4249.2308,4334.359
4233.3333,4183.5897,4185.641,4155.8974,4174.8718,4171.7949,4152.8205,4172.8205,4203.0769,4175.3846,4246.6667,4337.9487
4241.0256,4181.0256,4183.0769,4160.5128,4163.5897,4174.359,4154.8718,4177.4359,4208.7179,4180.5128,4263.0769,4350.2564
4246.1538,4185.641,4182.0513,4157.9487,4166.1538,4176.9231,4155.8974,4189.2308,4212.3077,4182.5641,4261.0256,4352.8205
4237.4359,4186.6667,4181.0256,4149.7436,4179.4872,4178.4615,4155.8974,4193.3333,4208.2051,4179.4872,4257.9487,4341.0256
4224.1026,4172.3077,4176.9231,4144.6154,4171.7949,4171.7949,4154.359,4189.2308,4197.9487,4173.3333,4267.1795,4323.5897
4218.9744,4170.7692,4177.9487,4157.4359,4157.4359,4172.3077,4161.5385,4190.7692,4189.2308,4169.7436,4255.8974,4309.2308
4224.1026,4190.2564,4189.7436,4172.3077,4164.6154,4186.1538,4172.3077,4200,4196.4103,4174.8718,4239.4872,4318.4615
4224.1026,4193.8462,4196.9231,4170.7692,4178.9744,4188.7179,4172.8205,4204.1026,4197.4359,4178.4615,4238.9744,4323.5897
4215.8974,4185.641,4191.2821,4171.2821,4177.9487,4178.4615,4169.7436,4198.9744,4187.1795,4176.9231,4243.0769,4305.641
4212.3077,4187.1795,4186.1538,4182.5641,4170.2564,4177.9487,4170.2564,4200,4194.359,4178.9744,4245.1282,4300.5128
4209.2308,4184.6154,4185.641,4180,4178.9744,4186.1538,4168.7179,4201.0256,4202.5641,4180.5128,4234.8718,4300
4203.5897,4184.6154,4186.1538,4169.7436,4194.359,4189.2308,4166.6667,4198.4615,4190.2564,4177.4359,4229.7436,4286.1538
4197.9487,4186.1538,4184.6154,4175.3846,4178.9744,4182.5641,4168.2051,4204.1026,4176.9231,4168.2051,4229.7436,4271.2821
4193.3333,4171.2821,4181.0256,4180.5128,4152.8205,4180.5128,4169.7436,4204.6154,4170.2564,4158.9744,4203.0769,4257.4359
4198.4615,4161.5385,4181.5385,4173.8462,4165.641,4189.7436,4170.2564,4200.5128,4170.2564,4157.4359,4195.8974,4250.2564
4202.5641,4164.6154,4180,4172.3077,4189.2308,4186.1538,4170.2564,4201.5385,4172.3077,4160,4225.1282,4254.359
4198.9744,4167.1795,4175.8974,4180,4185.641,4175.8974,4170.7692,4198.9744,4167.6923,4164.1026,4236.4103,4255.8974
4196.9231,4172.3077,4178.9744,4184.6154,4175.3846,4179.4872,4169.2308,4191.7949,4167.6923,4166.6667,4222.5641,4254.8718
4196.9231,4180,4181.5385,4177.4359,4171.7949,4175.3846,4166.1538,4186.1538,4175.8974,4169.7436,4220,4253.3333
4196.4103,4182.5641,4174.8718,4171.2821,4167.6923,4169.7436,4167.6923,4180.5128,4183.0769,4171.7949,4231.2821,4250.7692
4194.359,4181.5385,4176.4103,4174.359,4169.7436,4183.0769,4171.7949,4174.8718,4181.0256,4171.2821,4231.2821,4247.1795
4192.8205,4184.6154,4182.5641,4176.4103,4175.8974,4192.3077,4172.3077,4179.4872,4176.9231,4175.3846,4226.1538,4244.1026
4188.2051,4180,4175.3846,4168.2051,4170.2564,4173.3333,4168.2051,4182.0513,4171.7949,4180,4220,4234.359
4181.0256,4164.1026,4167.1795,4163.5897,4160,4160,4163.0769,4174.359,4168.2051,4180,4217.9487,4230.7692
4188.2051,4171.2821,4175.3846,4171.7949,4165.641,4172.8205,4167.1795,4180,4175.8974,4175.3846,4228.2051,4247.1795
4205.1282,4197.4359,4185.1282,4180,4172.3077,4174.8718,4172.3077,4186.1538,4182.0513,4177.4359,4234.8718,4261.5385
4224.1026,4210.2564,4189.7436,4185.1282,4169.7436,4165.641,4167.6923,4177.9487,4188.2051,4186.1538,4246.1538,4281.0256
4243.5897,4212.3077,4192.3077,4188.2051,4158.9744,4165.1282,4161.5385,4173.8462,4196.4103,4183.5897,4261.5385,4317.4359
4266.6667,4230.2564,4195.3846,4198.4615,4145.1282,4157.9487,4155.8974,4169.7436,4196.9231,4183.0769,4273.3333,4350.2564
4315.3846,4274.8718,4213.8462,4228.7179,4145.641,4156.9231,4162.0513,4176.4103,4218.4615,4208.2051,4301.0256,4389.2308
4356.4103,4293.8462,4235.3846,4245.1282,4156.4103,4167.1795,4173.3333,4193.3333,4249.2308,4224.6154,4318.4615,4426.1538
4349.2308,4273.3333,4234.8718,4233.3333,4164.6154,4164.6154,4166.6667,4190.7692,4247.1795,4210.2564,4307.1795,4431.2821
4340,4271.7949,4227.1795,4232.3077,4173.8462,4167.6923,4163.5897,4187.1795,4239.4872,4204.6154,4329.7436,4430.2564
4349.7436,4276.9231,4230.2564,4238.9744,4182.0513,4183.5897,4178.4615,4206.6667,4246.6667,4215.3846,4369.2308,4442.5641
4350.7692,4269.7436,4234.8718,4236.4103,4177.4359,4185.641,4180.5128,4216.4103,4253.8462,4215.3846,4343.0769,4444.6154
4340.5128,4268.2051,4232.8205,4242.0513,4153.3333,4178.4615,4171.2821,4198.9744,4258.4615,4213.3333,4313.8462,4438.9744
4325.641,4260,4225.1282,4246.6667,4146.1538,4182.0513,4177.4359,4191.7949,4260,4214.8718,4334.359,4430.2564
4315.8974,4252.8205,4220,4241.5385,4174.359,4185.1282,4186.1538,4198.9744,4252.8205,4208.2051,4333.8462,4414.359
4314.8718,4262.0513,4223.5897,4237.9487,4185.641,4180.5128,4182.0513,4192.8205,4238.9744,4194.8718,4298.9744,4401.5385
4308.7179,4269.2308,4225.1282,4228.7179,4172.3077,4178.9744,4171.2821,4180.5128,4225.1282,4183.5897,4282.5641,4390.7692
4288.7179,4264.6154,4216.4103,4218.9744,4174.8718,4179.4872,4163.5897,4175.3846,4216.4103,4177.4359,4287.6923,4367.6923
4278.4615,4273.3333,4208.7179,4220.5128,4179.4872,4178.4615,4168.2051,4178.4615,4220.5128,4179.4872,4284.1026,4350.2564
4276.9231,4279.4872,4204.6154,4221.5385,4172.3077,4181.5385,4171.7949,4181.5385,4219.4872,4177.9487,4249.2308,4346.1538
4261.5385,4262.0513,4201.5385,4222.0513,4170.2564,4184.6154,4166.6667,4173.3333,4192.3077,4165.1282,4204.6154,4321.5385
4250.7692,4248.2051,4202.5641,4226.1538,4175.8974,4185.1282,4169.2308,4170.7692,4178.9744,4160.5128,4209.2308,4292.3077
4249.2308,4243.5897,4197.9487,4210.7692,4188.2051,4182.0513,4172.8205,4178.9744,4196.9231,4165.1282,4222.5641,4279.4872
4233.8462,4238.9744,4187.6923,4194.8718,4191.7949,4180.5128,4167.1795,4180,4201.0256,4164.6154,4196.4103,4256.9231
4215.3846,4237.9487,4186.6667,4201.0256,4180.5128,4186.1538,4165.641,4178.9744,4188.2051,4157.4359,4197.9487,4241.0256
4206.1538,4230.2564,4182.0513,4204.1026,4183.0769,4188.2051,4166.1538,4179.4872,4183.5897,4147.1795,4201.0256,4234.8718
4196.9231,4216.4103,4171.7949,4197.4359,4189.7436,4180.5128,4160,4173.3333,4183.0769,4143.0769,4173.8462,4216.4103
4189.2308,4214.8718,4173.3333,4193.8462,4169.2308,4174.359,4154.359,4168.7179,4172.8205,4146.1538,4165.641,4196.9231
4188.7179,4222.0513,4182.5641,4196.9231,4156.4103,4180.5128,4154.359,4169.2308,4169.2308,4151.7949,4165.641,4194.8718
4188.2051,4217.9487,4178.4615,4204.1026,4179.4872,4189.7436,4161.5385,4169.7436,4182.0513,4153.3333,4161.0256,4200
4178.9744,4206.6667,4167.1795,4202.5641,4189.2308,4185.1282,4167.1795,4169.7436,4186.6667,4155.3846,4165.641,4191.7949
4171.7949,4210.2564,4168.2051,4191.2821,4182.5641,4180,4168.2051,4182.0513,4178.9744,4158.9744,4165.1282,4178.9744
4169.7436,4218.9744,4172.8205,4186.6667,4175.8974,4184.1026,4175.8974,4200,4178.4615,4156.9231,4161.0256,4177.9487
4160,4206.6667,4162.5641,4183.5897,4162.0513,4180,4182.0513,4200.5128,4171.7949,4154.8718,4160.5128,4169.7436
4155.8974,4197.4359,4149.2308,4170.2564,4166.6667,4175.8974,4175.8974,4193.3333,4160,4154.8718,4141.5385,4156.9231
4150.7692,4201.5385,4146.1538,4155.3846,4167.1795,4174.8718,4168.7179,4190.2564,4155.3846,4150.7692,4115.3846,4153.3333
4136.4103,4205.1282,4151.7949,4151.7949,4143.0769,4162.5641,4165.641,4185.1282,4154.359,4147.1795,4123.5897,4156.4103
4135.8974,4193.3333,4150.2564,4147.1795,4151.2821,4158.4615,4158.4615,4178.9744,4150.7692,4142.0513,4140.5128,4157.4359
4140.5128,4172.8205,4136.4103,4131.7949,4172.8205,4168.2051,4151.2821,4173.8462,4142.0513,4130.2564,4132.3077,4149.7436
4140,4174.359,4135.3846,4134.8718,4153.8462,4168.7179,4153.8462,4174.359,4142.0513,4129.2308,4120,4145.641
4141.0256,4182.0513,4151.7949,4152.8205,4142.0513,4163.0769,4162.0513,4177.4359,4152.8205,4137.4359,4121.0256,4147.1795
4137.4359,4175.3846,4150.7692,4149.2308,4165.641,4162.0513,4163.5897,4170.2564,4155.8974,4140,4122.5641,4148.2051
4134.8718,4179.4872,4142.5641,4147.1795,4174.359,4165.641,4157.9487,4164.1026,4152.8205,4142.0513,4124.6154,4152.3077
4137.9487,4188.2051,4144.6154,4156.9231,4164.1026,4167.1795,4156.9231,4169.2308,4152.8205,4146.6667,4131.2821,4154.8718
4149.2308,4188.2051,4146.1538,4163.0769,4160,4166.6667,4161.0256,4177.9487,4162.0513,4150.2564,4138.9744,4156.4103
4149.2308,4188.2051,4146.1538,4163.0769,4160,4166.6667,4161.0256,4177.9487,4162.0513,4150.2564,4138.9744,4156.4103
4156.9231,4187.6923,4148.2051,4166.1538,4156.4103,4161.5385,4158.4615,4183.0769,4167.1795,4150.2564,4142.0513,4164.1026
4153.3333,4184.6154,4152.3077,4155.3846,4166.1538,4159.4872,4154.8718,4188.7179,4163.5897,4153.3333,4144.1026,4170.2564
4146.1538,4185.641,4147.1795,4142.0513,4186.1538,4168.7179,4159.4872,4194.8718,4168.2051,4155.3846,4149.2308,4166.6667
4146.1538,4192.3077,4144.1026,4143.5897,4172.3077,4172.3077,4165.1282,4193.8462,4166.1538,4152.8205,4144.6154,4163.5897
4158.4615,4200.5128,4156.9231,4149.2308,4147.6923,4167.6923,4168.7179,4194.8718,4163.5897,4162.5641,4145.641,4175.3846
4162.0513,4207.1795,4158.9744,4145.641,4164.6154,4164.6154,4170.7692,4199.4872,4169.7436,4170.2564,4158.9744,4183.5897
4154.8718,4206.1538,4150.2564,4138.4615,4180,4163.0769,4162.0513,4192.8205,4167.1795,4160,4161.0256,4178.9744
4158.9744,4200.5128,4154.359,4129.7436,4166.1538,4166.6667,4156.4103,4189.2308,4161.5385,4158.9744,4162.0513,4182.5641
4153.3333,4191.7949,4159.4872,4117.9487,4165.641,4169.7436,4160,4190.7692,4152.3077,4169.2308,4159.4872,4180
4136.9231,4186.6667,4155.8974,4122.0513,4179.4872,4170.2564,4160.5128,4190.7692,4142.0513,4164.1026,4151.2821,4165.641
4135.8974,4187.1795,4160,4127.1795,4178.4615,4167.1795,4159.4872,4192.8205,4146.1538,4157.9487,4160.5128,4164.1026
4145.641,4186.1538,4166.6667,4119.4872,4174.359,4160.5128,4163.0769,4196.9231,4157.4359,4166.1538,4174.8718,4172.8205
4152.3077,4196.9231,4163.5897,4124.1026,4168.7179,4161.0256,4159.4872,4201.5385,4157.4359,4167.6923,4172.8205,4178.4615
4143.5897,4198.9744,4154.359,4134.359,4150.7692,4158.4615,4144.1026,4190.2564,4143.5897,4154.8718,4157.4359,4170.7692
4138.4615,4185.641,4149.7436,4121.0256,4157.9487,4148.2051,4142.0513,4175.3846,4141.0256,4149.2308,4157.4359,4166.6667
4152.8205,4189.7436,4153.8462,4105.641,4173.3333,4151.2821,4155.8974,4183.5897,4152.8205,4152.3077,4172.3077,4173.3333
4158.4615,4201.5385,4155.8974,4107.6923,4159.4872,4161.5385,4162.0513,4190.2564,4153.3333,4147.6923,4172.8205,4168.7179
4146.1538,4197.4359,4152.8205,4107.1795,4156.9231,4160.5128,4156.9231,4184.6154,4145.1282,4144.1026,4171.2821,4165.641
4139.4872,4184.6154,4148.7179,4101.0256,4169.7436,4153.3333,4152.8205,4179.4872,4145.1282,4144.6154,4169.7436,4168.7179
4147.1795,4183.0769,4147.1795,4101.0256,4169.2308,4150.7692,4151.2821,4181.0256,4149.2308,4145.641,4164.1026,4168.2051
4153.3333,4194.359,4150.7692,4104.1026,4166.1538,4154.8718,4148.7179,4181.0256,4151.2821,4148.2051,4179.4872,4171.7949
4148.7179,4202.0513,4152.8205,4106.6667,4166.6667,4160.5128,4152.3077,4177.4359,4150.2564,4156.4103,4200.5128,4177.9487
4143.0769,4194.359,4145.1282,4107.6923,4166.6667,4163.0769,4152.3077,4174.8718,4150.2564,4156.4103,4194.359,4174.359
4144.1026,4184.6154,4142.0513,4101.5385,4167.1795,4159.4872,4154.359,4175.8974,4149.2308,4148.7179,4185.641,4169.2308
4152.8205,4197.4359,4152.8205,4099.4872,4165.641,4163.5897,4170.2564,4188.2051,4153.3333,4156.9231,4203.5897,4181.0256
4155.3846,4208.7179,4157.9487,4103.5897,4169.7436,4170.2564,4177.4359,4198.9744,4163.0769,4166.1538,4206.6667,4185.1282
4138.4615,4191.2821,4152.3077,4095.8974,4171.7949,4162.5641,4164.6154,4189.7436,4159.4872,4159.4872,4180,4168.7179
4131.7949,4175.8974,4154.359,4087.6923,4160,4156.4103,4155.8974,4182.0513,4152.3077,4154.8718,4180,4170.2564
4149.2308,4183.5897,4157.4359,4095.3846,4155.8974,4156.4103,4155.3846,4188.7179,4153.8462,4155.8974,4202.5641,4189.7436
4156.4103,4190.2564,4150.7692,4101.0256,4169.2308,4155.8974,4150.2564,4192.8205,4152.3077,4155.3846,4198.4615,4192.8205
4150.7692,4186.6667,4147.1795,4095.3846,4167.6923,4154.8718,4147.6923,4194.8718,4152.3077,4157.4359,4187.1795,4194.359
4154.8718,4183.5897,4153.8462,4098.4615,4153.8462,4147.1795,4150.7692,4205.641,4157.4359,4165.1282,4200.5128,4210.7692
4161.0256,4188.2051,4163.0769,4111.7949,4162.0513,4149.2308,4156.4103,4212.8205,4166.1538,4166.1538,4211.7949,4225.641
4148.7179,4180,4163.0769,4107.6923,4172.8205,4162.0513,4157.4359,4196.4103,4163.0769,4153.8462,4188.2051,4216.4103
4134.8718,4157.4359,4151.7949,4096.4103,4162.0513,4158.9744,4148.2051,4175.8974,4147.6923,4147.6923,4161.5385,4191.7949
4136.9231,4153.8462,4143.0769,4096.4103,4152.8205,4147.1795,4143.0769,4177.4359,4149.7436,4153.3333,4174.359,4194.359
4128.2051,4153.8462,4137.9487,4090.2564,4150.7692,4143.5897,4142.0513,4175.8974,4159.4872,4155.8974,4185.1282,4208.2051
4122.5641,4147.6923,4136.4103,4080.5128,4150.7692,4145.641,4138.9744,4167.6923,4155.3846,4154.359,4175.3846,4203.5897
4136.9231,4154.8718,4144.1026,4088.7179,4146.6667,4147.1795,4141.5385,4170.2564,4146.6667,4155.8974,4172.8205,4201.5385
4147.6923,4158.4615,4144.6154,4095.3846,4147.1795,4148.2051,4144.1026,4170.7692,4147.1795,4158.9744,4174.8718,4206.6667
4147.1795,4156.9231,4140.5128,4092.3077,4161.5385,4147.6923,4144.6154,4168.7179,4153.8462,4161.0256,4184.6154,4211.7949
4141.5385,4164.1026,4143.0769,4097.9487,4167.1795,4147.1795,4146.1538,4170.2564,4158.4615,4163.5897,4194.8718,4212.8205
4138.4615,4170.2564,4145.641,4109.7436,4156.9231,4151.7949,4146.1538,4171.7949,4165.641,4167.6923,4200.5128,4219.4872
4138.9744,4164.6154,4147.6923,4110.7692,4143.5897,4149.7436,4143.0769,4166.6667,4164.1026,4164.6154,4201.0256,4224.6154
4136.9231,4156.9231,4146.1538,4098.9744,4143.5897,4141.0256,4144.6154,4157.4359,4152.3077,4158.4615,4193.3333,4213.8462
4131.7949,4158.9744,4142.0513,4093.3333,4159.4872,4146.6667,4147.6923,4155.8974,4154.8718,4156.9231,4191.2821,4208.7179
4134.8718,4164.6154,4146.1538,4100.5128,4170.2564,4153.3333,4146.6667,4159.4872,4160.5128,4162.5641,4194.8718,4216.4103
4150.2564,4175.3846,4157.9487,4106.1538,4165.641,4153.8462,4151.2821,4163.5897,4154.8718,4171.7949,4194.8718,4224.1026
4150.2564,4178.4615,4155.8974,4103.5897,4151.7949,4158.9744,4153.3333,4161.5385,4149.7436,4170.2564,4187.6923,4224.1026
4136.9231,4169.7436,4149.7436,4105.1282,4142.5641,4157.9487,4152.3077,4154.359,4154.8718,4161.5385,4187.1795,4216.9231
4147.1795,4171.2821,4155.3846,4111.7949,4149.2308,4148.2051,4154.8718,4151.2821,4160,4160.5128,4205.1282,4219.4872
4156.4103,4180,4154.8718,4106.1538,4158.9744,4145.641,4152.3077,4146.1538,4149.7436,4160,4206.1538,4216.9231
4141.5385,4175.3846,4148.2051,4098.4615,4170.7692,4152.3077,4152.3077,4142.0513,4144.1026,4157.4359,4186.1538,4208.2051
4132.8205,4155.3846,4143.5897,4097.9487,4172.3077,4152.3077,4154.8718,4145.1282,4148.2051,4155.3846,4183.5897,4204.6154
4136.9231,4147.6923,4140,4097.4359,4141.0256,4143.0769,4149.2308,4146.6667,4141.5385,4150.2564,4191.7949,4201.5385
4136.9231,4163.5897,4139.4872,4097.9487,4132.8205,4142.0513,4142.0513,4150.7692,4138.4615,4148.7179,4183.5897,4198.4615
4127.6923,4166.1538,4137.9487,4094.8718,4154.8718,4137.9487,4138.4615,4150.2564,4134.8718,4146.6667,4166.6667,4190.2564
4118.9744,4150.7692,4135.8974,4093.3333,4145.641,4125.1282,4132.3077,4136.9231,4120.5128,4141.0256,4165.1282,4183.0769
4121.5385,4155.3846,4137.9487,4102.5641,4130.2564,4124.1026,4131.2821,4135.3846,4118.9744,4143.0769,4167.6923,4187.6923
4128.2051,4166.6667,4137.4359,4103.0769,4137.4359,4131.2821,4133.8462,4144.1026,4125.1282,4149.2308,4160,4186.1538
4126.6667,4164.6154,4132.8205,4096.4103,4140,4131.7949,4130.2564,4143.5897,4118.9744,4145.1282,4155.8974,4175.8974
4121.0256,4153.8462,4131.7949,4096.9231,4137.4359,4129.2308,4130.7692,4136.4103,4111.7949,4143.5897,4154.359,4173.8462
4125.1282,4150.2564,4134.359,4099.4872,4142.5641,4133.8462,4137.4359,4138.4615,4114.8718,4154.8718,4155.8974,4186.1538
4136.9231,4168.2051,4142.0513,4105.1282,4149.2308,4139.4872,4141.0256,4148.7179,4124.1026,4157.9487,4167.1795,4197.9487
4136.4103,4177.4359,4145.1282,4110.7692,4153.8462,4133.3333,4140,4148.7179,4129.7436,4153.8462,4169.7436,4195.8974
4129.2308,4167.6923,4141.0256,4114.359,4149.2308,4129.7436,4140,4146.1538,4129.7436,4155.8974,4156.4103,4189.7436
4127.1795,4167.1795,4143.0769,4119.4872,4142.5641,4138.9744,4144.1026,4147.6923,4125.641,4155.8974,4150.2564,4185.641
4131.7949,4178.4615,4151.7949,4122.0513,4147.6923,4147.6923,4147.1795,4148.2051,4129.2308,4149.2308,4161.0256,4192.8205
4138.4615,4180.5128,4157.4359,4111.2821,4144.1026,4143.5897,4146.1538,4152.3077,4141.0256,4149.2308,4173.3333,4200
4126.6667,4167.6923,4149.7436,4097.9487,4134.8718,4132.8205,4139.4872,4146.6667,4133.3333,4149.7436,4161.5385,4181.0256
4116.4103,4162.0513,4140,4098.9744,4135.8974,4127.6923,4129.7436,4128.2051,4122.5641,4142.0513,4146.1538,4167.1795
4124.6154,4169.2308,4142.5641,4106.6667,4132.3077,4125.641,4124.6154,4123.0769,4130.2564,4134.359,4150.7692,4175.8974
4130.7692,4172.3077,4147.1795,4111.2821,4134.359,4130.7692,4130.2564,4129.2308,4132.3077,4134.8718,4149.7436,4172.8205
4136.4103,4172.3077,4148.7179,4118.9744,4150.2564,4143.0769,4138.4615,4130.7692,4132.3077,4137.9487,4143.5897,4166.1538
4136.9231,4168.2051,4145.1282,4123.5897,4151.7949,4144.6154,4138.4615,4128.2051,4135.8974,4136.9231,4145.641,4173.8462
4131.7949,4169.2308,4144.6154,4125.641,4142.5641,4135.3846,4140.5128,4129.7436,4135.3846,4139.4872,4154.359,4180.5128
4136.9231,4177.4359,4151.7949,4132.3077,4139.4872,4132.8205,4143.5897,4134.8718,4135.8974,4145.1282,4161.5385,4177.9487
4140.5128,4173.3333,4153.8462,4134.8718,4134.359,4132.3077,4136.9231,4134.8718,4134.8718,4144.1026,4154.359,4173.8462
4138.9744,4166.6667,4149.7436,4128.7179,4124.6154,4131.7949,4137.4359,4128.2051,4131.7949,4144.1026,4148.2051,4177.4359
4131.7949,4165.1282,4144.1026,4111.7949,4121.0256,4134.359,4143.5897,4115.8974,4124.1026,4145.1282,4149.7436,4171.7949
4122.5641,4160,4135.8974,4104.6154,4138.9744,4137.4359,4142.5641,4110.7692,4118.9744,4144.6154,4147.1795,4160
4121.0256,4155.3846,4131.2821,4114.8718,4155.3846,4141.5385,4143.5897,4110.7692,4115.3846,4142.5641,4143.0769,4166.6667
4126.6667,4157.4359,4136.9231,4119.4872,4137.9487,4141.0256,4148.2051,4111.7949,4114.8718,4142.5641,4145.1282,4176.9231
4131.7949,4162.0513,4143.5897,4118.4615,4137.4359,4141.0256,4147.6923,4122.0513,4126.1538,4145.1282,4156.9231,4174.359
4130.7692,4156.4103,4143.5897,4118.4615,4151.2821,4137.9487,4145.641,4132.3077,4133.8462,4147.1795,4166.6667,4171.2821
4125.1282,4152.8205,4142.5641,4115.3846,4129.7436,4127.1795,4145.641,4133.8462,4127.1795,4146.6667,4165.1282,4172.3077
4115.3846,4155.8974,4138.4615,4112.8205,4117.4359,4126.6667,4140,4129.2308,4120.5128,4137.4359,4159.4872,4170.2564
4107.6923,4158.9744,4134.8718,4113.3333,4131.2821,4128.7179,4136.4103,4121.5385,4121.0256,4134.359,4153.3333,4168.2051
4112.3077,4166.1538,4134.8718,4108.7179,4132.8205,4126.6667,4139.4872,4121.5385,4125.1282,4141.5385,4154.8718,4168.7179
4112.8205,4165.1282,4127.1795,4098.9744,4126.6667,4126.6667,4136.9231,4120.5128,4117.4359,4134.359,4149.7436,4158.4615
4104.6154,4155.8974,4121.5385,4101.0256,4129.7436,4124.1026,4131.2821,4113.8462,4108.2051,4123.0769,4136.9231,4148.2051
4110.7692,4162.0513,4133.8462,4109.7436,4134.359,4119.4872,4130.7692,4115.3846,4120.5128,4128.7179,4139.4872,4157.4359
4116.9231,4169.2308,4137.9487,4104.6154,4130.2564,4121.0256,4131.7949,4121.0256,4124.1026,4133.3333,4140.5128,4157.9487
4112.3077,4163.0769,4129.2308,4094.8718,4125.1282,4127.6923,4128.2051,4122.0513,4112.8205,4130.7692,4137.4359,4153.3333
4115.3846,4166.6667,4136.4103,4099.4872,4125.1282,4121.0256,4122.0513,4120,4115.3846,4144.1026,4139.4872,4162.0513
4118.4615,4177.9487,4149.7436,4109.7436,4126.1538,4111.2821,4122.0513,4117.4359,4120.5128,4153.3333,4140.5128,4165.1282
4118.9744,4174.359,4141.0256,4107.1795,4117.4359,4114.8718,4127.6923,4118.4615,4109.2308,4144.1026,4137.9487,4157.9487
4122.0513,4165.1282,4131.7949,4101.5385,4116.9231,4117.4359,4130.2564,4120.5128,4101.0256,4142.5641,4141.5385,4150.7692
4120.5128,4169.2308,4140.5128,4111.2821,4133.3333,4116.4103,4130.2564,4130.2564,4112.8205,4149.7436,4154.359,4157.4359
4115.8974,4174.8718,4143.5897,4126.1538,4133.3333,4123.5897,4131.7949,4139.4872,4116.4103,4145.1282,4154.359,4167.6923
4115.8974,4174.359,4137.9487,4133.3333,4124.1026,4132.8205,4130.2564,4134.359,4106.1538,4140,4142.0513,4164.6154
4115.8974,4175.8974,4139.4872,4132.3077,4127.6923,4131.7949,4129.2308,4133.8462,4104.6154,4139.4872,4144.6154,4161.0256
4104.6154,4167.6923,4136.4103,4126.1538,4127.1795,4123.5897,4128.2051,4140.5128,4106.6667,4138.4615,4153.8462,4157.4359
4100.5128,4165.1282,4126.6667,4120.5128,4129.2308,4126.6667,4126.6667,4140,4101.0256,4137.4359,4154.359,4152.3077
4099.4872,4172.8205,4128.2051,4116.9231,4134.359,4131.2821,4128.7179,4138.4615,4101.5385,4133.8462,4154.359,4150.7692
4097.4359,4172.8205,4137.9487,4116.9231,4129.7436,4121.0256,4129.7436,4144.6154,4110.7692,4136.4103,4162.5641,4154.359
4112.8205,4177.9487,4142.5641,4122.5641,4131.2821,4118.9744,4129.2308,4147.1795,4113.8462,4143.5897,4167.6923,4158.9744
4123.0769,4187.1795,4144.1026,4118.4615,4139.4872,4125.1282,4127.6923,4137.9487,4106.6667,4142.0513,4158.4615,4153.3333
4120,4189.2308,4144.1026,4113.8462,4135.3846,4125.641,4128.2051,4133.3333,4105.641,4138.9744,4158.9744,4149.2308
4115.8974,4183.0769,4145.641,4128.2051,4129.2308,4129.7436,4132.3077,4134.359,4113.3333,4140.5128,4168.7179,4150.2564
4106.1538,4174.359,4142.0513,4132.8205,4133.8462,4133.8462,4131.7949,4127.1795,4106.6667,4133.3333,4158.4615,4137.4359
4093.8462,4177.9487,4133.3333,4118.9744,4128.7179,4130.2564,4122.5641,4118.9744,4095.3846,4122.5641,4148.7179,4122.5641
4086.1538,4181.0256,4126.1538,4114.359,4117.9487,4126.6667,4117.9487,4120,4091.2821,4120,4150.2564,4115.8974
4092.8205,4174.359,4124.6154,4121.5385,4128.7179,4130.2564,4123.0769,4132.3077,4094.359,4125.1282,4147.1795,4111.7949
4100.5128,4172.8205,4129.7436,4124.6154,4145.1282,4137.4359,4129.2308,4144.1026,4100,4133.8462,4147.6923,4115.3846
4096.4103,4178.4615,4131.7949,4118.9744,4142.0513,4140,4135.8974,4147.6923,4100.5128,4133.3333,4155.3846,4124.6154
4094.8718,4182.0513,4124.6154,4113.8462,4142.0513,4136.4103,4141.0256,4151.7949,4102.0513,4127.6923,4161.5385,4128.7179
4105.1282,4186.1538,4123.5897,4109.7436,4147.6923,4129.7436,4137.9487,4156.9231,4103.0769,4126.1538,4164.1026,4130.2564
4117.4359,4192.3077,4133.3333,4110.7692,4135.3846,4130.7692,4141.5385,4156.9231,4108.7179,4129.7436,4168.2051,4135.3846
4108.2051,4188.7179,4130.2564,4116.9231,4124.6154,4131.2821,4141.0256,4143.0769,4108.2051,4123.5897,4165.1282,4127.1795
4090.7692,4181.5385,4118.9744,4112.3077,4136.4103,4118.9744,4128.7179,4124.6154,4095.8974,4115.8974,4151.2821,4114.8718
4100.5128,4194.359,4128.7179,4106.6667,4155.8974,4120.5128,4130.7692,4133.8462,4098.4615,4131.2821,4155.3846,4129.7436
4113.3333,4204.1026,4140,4111.2821,4151.2821,4128.2051,4140,4144.1026,4107.6923,4136.4103,4163.5897,4138.4615
4106.6667,4195.8974,4133.8462,4111.7949,4138.9744,4124.6154,4137.4359,4132.3077,4104.6154,4121.0256,4161.5385,4129.7436
4109.2308,4193.8462,4132.8205,4107.6923,4147.6923,4127.1795,4139.4872,4138.4615,4108.7179,4122.0513,4172.8205,4136.4103
4114.8718,4189.2308,4134.8718,4104.1026,4149.7436,4132.3077,4143.0769,4154.8718,4112.8205,4134.359,4175.8974,4135.8974
4104.6154,4174.359,4129.7436,4094.8718,4146.1538,4128.7179,4135.8974,4145.641,4107.1795,4127.6923,4160.5128,4118.9744
4091.2821,4171.2821,4123.5897,4087.6923,4153.3333,4127.1795,4132.3077,4135.3846,4109.2308,4117.4359,4155.3846,4117.9487
4090.2564,4181.0256,4123.0769,4095.3846,4160.5128,4130.7692,4134.359,4148.2051,4113.8462,4124.1026,4155.8974,4122.5641
4096.9231,4180,4123.0769,4101.5385,4154.359,4126.1538,4131.7949,4151.7949,4109.2308,4125.641,4144.1026,4113.8462
4096.9231,4165.641,4124.1026,4101.0256,4137.9487,4112.3077,4127.6923,4135.8974,4102.5641,4117.4359,4135.3846,4104.1026
4094.359,4157.9487,4122.0513,4108.7179,4132.3077,4110.2564,4123.5897,4131.2821,4099.4872,4110.7692,4138.4615,4103.5897
4096.4103,4156.9231,4116.4103,4116.4103,4133.8462,4118.9744,4122.0513,4130.7692,4092.3077,4108.2051,4135.3846,4101.0256
4104.6154,4157.9487,4121.5385,4118.9744,4144.6154,4127.1795,4131.7949,4125.641,4093.8462,4118.4615,4138.4615,4111.2821
4109.2308,4163.0769,4128.7179,4126.1538,4156.4103,4132.3077,4141.5385,4133.8462,4106.6667,4125.641,4152.8205,4128.7179
4093.3333,4158.4615,4125.1282,4135.8974,4141.5385,4128.7179,4136.9231,4138.9744,4097.9487,4120,4141.0256,4115.3846
4082.5641,4147.6923,4122.0513,4135.3846,4125.1282,4123.5897,4130.2564,4133.8462,4088.7179,4127.1795,4128.2051,4103.0769
4091.2821,4145.1282,4121.5385,4118.4615,4126.6667,4117.9487,4129.7436,4137.9487,4103.5897,4138.9744,4145.641,4117.9487
4100.5128,4151.2821,4118.4615,4106.6667,4138.4615,4111.7949,4132.3077,4144.6154,4110.7692,4132.3077,4158.4615,4128.2051
4104.6154,4160,4120.5128,4109.2308,4147.6923,4114.359,4133.3333,4147.1795,4105.1282,4122.5641,4153.8462,4129.2308
4103.5897,4157.9487,4122.5641,4111.2821,4146.6667,4119.4872,4132.8205,4146.1538,4102.5641,4121.5385,4148.7179,4126.1538
4105.1282,4153.3333,4120.5128,4117.9487,4151.7949,4125.1282,4135.3846,4142.5641,4108.7179,4123.0769,4150.2564,4121.5385
4111.2821,4158.4615,4129.2308,4129.2308,4165.1282,4128.7179,4140.5128,4142.5641,4120.5128,4121.5385,4156.9231,4129.2308
4115.3846,4161.5385,4137.4359,4124.6154,4156.9231,4129.2308,4145.641,4144.1026,4123.5897,4124.1026,4163.0769,4138.4615
4118.4615,4161.5385,4133.8462,4109.7436,4136.4103,4131.7949,4144.6154,4144.1026,4123.5897,4132.8205,4166.6667,4140
4115.8974,4155.3846,4130.2564,4106.6667,4133.8462,4132.3077,4136.9231,4138.4615,4123.0769,4135.8974,4158.4615,4133.8462
4110.2564,4142.5641,4126.1538,4104.1026,4142.0513,4132.3077,4137.4359,4135.8974,4117.9487,4127.1795,4151.7949,4127.6923
4113.8462,4136.9231,4121.5385,4089.2308,4151.7949,4134.8718,4142.5641,4140.5128,4112.3077,4124.6154,4158.4615,4130.7692
4111.7949,4140,4120.5128,4076.4103,4157.4359,4133.3333,4138.9744,4141.5385,4117.9487,4130.2564,4161.0256,4140.5128
4107.1795,4146.1538,4128.2051,4091.7949,4139.4872,4130.2564,4138.9744,4150.2564,4137.4359,4132.8205,4161.5385,4160
4110.7692,4140,4131.7949,4105.641,4121.5385,4130.2564,4148.2051,4156.9231,4145.641,4135.3846,4167.1795,4170.2564
4103.0769,4127.6923,4123.5897,4087.6923,4133.8462,4131.7949,4149.2308,4145.1282,4138.4615,4138.4615,4169.7436,4161.0256
4095.3846,4129.2308,4120,4082.5641,4153.3333,4136.9231,4148.2051,4133.3333,4138.9744,4135.3846,4172.3077,4159.4872
4100.5128,4127.6923,4122.0513,4096.9231,4157.4359,4137.9487,4146.6667,4126.1538,4142.0513,4136.4103,4172.3077,4167.1795
4102.5641,4123.0769,4124.1026,4101.5385,4153.3333,4138.4615,4143.5897,4121.0256,4142.5641,4142.0513,4165.641,4170.2564
4100.5128,4124.6154,4128.7179,4095.8974,4136.9231,4136.9231,4148.7179,4118.9744,4145.641,4141.5385,4158.9744,4169.2308
4105.1282,4124.6154,4131.7949,4087.6923,4126.6667,4132.3077,4152.8205,4123.0769,4152.8205,4141.0256,4166.1538,4174.359
4102.5641,4117.9487,4130.7692,4082.0513,4141.5385,4131.7949,4143.5897,4122.0513,4151.2821,4138.4615,4172.3077,4174.359
4094.359,4111.2821,4127.6923,4082.5641,4146.1538,4130.7692,4134.359,4110.7692,4141.0256,4132.8205,4154.359,4158.9744
4100.5128,4116.4103,4128.2051,4092.8205,4138.9744,4133.3333,4138.9744,4109.2308,4148.7179,4135.3846,4150.2564,4157.4359
4101.5385,4122.0513,4131.7949,4092.3077,4143.0769,4143.0769,4140,4113.3333,4161.5385,4140,4162.0513,4167.6923
4093.8462,4118.4615,4132.8205,4085.1282,4136.9231,4141.0256,4131.7949,4112.8205,4158.4615,4135.8974,4156.9231,4165.641
4104.1026,4120.5128,4135.8974,4087.1795,4124.6154,4129.7436,4130.7692,4112.3077,4162.5641,4133.8462,4149.7436,4167.6923
4112.3077,4120.5128,4141.0256,4091.7949,4133.8462,4124.6154,4135.8974,4110.2564,4167.6923,4137.9487,4156.4103,4176.4103
4103.5897,4113.8462,4140,4090.7692,4144.1026,4126.1538,4135.3846,4106.6667,4157.9487,4139.4872,4155.8974,4171.2821
4094.8718,4112.3077,4133.8462,4087.6923,4131.2821,4127.6923,4132.3077,4106.1538,4146.6667,4132.8205,4141.5385,4161.5385
4093.8462,4109.2308,4127.1795,4083.5897,4127.1795,4132.8205,4137.9487,4105.641,4140.5128,4125.641,4134.359,4161.5385
4095.3846,4101.0256,4127.1795,4082.0513,4137.9487,4133.3333,4142.0513,4107.6923,4137.4359,4125.641,4143.0769,4166.1538
4093.3333,4097.4359,4130.2564,4085.641,4130.7692,4127.1795,4141.0256,4109.2308,4138.9744,4126.1538,4150.2564,4166.6667
4098.4615,4107.6923,4130.2564,4085.641,4122.5641,4131.2821,4142.0513,4108.7179,4148.2051,4126.1538,4150.7692,4171.7949
4101.5385,4116.4103,4127.1795,4079.4872,4127.1795,4133.3333,4141.0256,4109.2308,4151.7949,4121.5385,4147.6923,4170.7692
4094.359,4106.6667,4126.1538,4078.4615,4124.1026,4123.5897,4138.4615,4105.1282,4142.0513,4114.359,4141.5385,4159.4872
4095.3846,4101.0256,4128.2051,4072.3077,4122.0513,4122.0513,4136.9231,4097.4359,4136.4103,4113.8462,4144.1026,4159.4872
4094.359,4104.1026,4123.0769,4051.2821,4131.2821,4124.6154,4127.6923,4090.7692,4136.4103,4113.3333,4143.5897,4158.4615
4091.2821,4110.2564,4122.5641,4045.1282,4135.8974,4122.5641,4123.0769,4099.4872,4140.5128,4117.4359,4141.5385,4152.8205
